PE IR       RAMAN       SPECTRUM    ASCII       PEDS        1.60        
  -1
LM_PECT.ASC
96/11/14
14:26:18.00
96/11/14
14:26:18.00
default
Amideret LM-pektin (25.3%) 44-45451-58
0.000000
256









2000,4.05    
INGAAS
RAM_DPY2
QUARTZ

0.100000
1
4.000000
MEDIUM
SINGLE
RAMAN
SELF 256

DOUBLE

COMBINED


0


1.000000
SINGLE BEAM




TRUE
39836
1
NONE 0
NONE
NONE
15600
21.200000
6.470000
39835



15798.010000
9394.690000
400.000000




#HDR
-1
-1
#GR
CM-1
INT
0.00100000000000000000
0.0
3600.000000
-1.000000
3601
8
398.776125
-1.847386
#DATA
3600.000000	0.972962   
3599.000000	0.981235   
3598.000000	1.015233   
3597.000000	1.049494   
3596.000000	1.053309   
3595.000000	1.031780   
3594.000000	1.009654   
3593.000000	0.996112   
3592.000000	0.987935   
3591.000000	0.985765   
3590.000000	0.983834   
3589.000000	0.968265   
3588.000000	0.944328   
3587.000000	0.938963   
3586.000000	0.961995   
3585.000000	0.985884   
3584.000000	0.978899   
3583.000000	0.943183   
3582.000000	0.910234   
3581.000000	0.906205   
3580.000000	0.929665   
3579.000000	0.961971   
3578.000000	0.990533   
3577.000000	1.008534   
3576.000000	1.001191   
3575.000000	0.960564   
3574.000000	0.909996   
3573.000000	0.883746   
3572.000000	0.889039   
3571.000000	0.916743   
3570.000000	0.965142   
3569.000000	1.018214   
3568.000000	1.034164   
3567.000000	1.001763   
3566.000000	0.969099   
3565.000000	0.974750   
3564.000000	0.992798   
3563.000000	0.985884   
3562.000000	0.968432   
3561.000000	0.972437   
3560.000000	0.992751   
3559.000000	1.004505   
3558.000000	0.999855   
3557.000000	0.983071   
3556.000000	0.960898   
3555.000000	0.948286   
3554.000000	0.951361   
3553.000000	0.944924   
3552.000000	0.908684   
3551.000000	0.876760   
3550.000000	0.898432   
3549.000000	0.959229   
3548.000000	0.999522   
3547.000000	0.997185   
3546.000000	0.975632   
3545.000000	0.949048   
3544.000000	0.918984   
3543.000000	0.903463   
3542.000000	0.913238   
3541.000000	0.921535   
3540.000000	0.903749   
3539.000000	0.883889   
3538.000000	0.902533   
3537.000000	0.957179   
3536.000000	1.000428   
3535.000000	0.992178   
3534.000000	0.939917   
3533.000000	0.887823   
3532.000000	0.871682   
3531.000000	0.891923   
3530.000000	0.927972   
3529.000000	0.957942   
3528.000000	0.961756   
3527.000000	0.936055   
3526.000000	0.910758   
3525.000000	0.921320   
3524.000000	0.961112   
3523.000000	0.991082   
3522.000000	0.992608   
3521.000000	0.977396   
3520.000000	0.954031   
3519.000000	0.921535   
3518.000000	0.891137   
3517.000000	0.880837   
3516.000000	0.889801   
3515.000000	0.900030   
3514.000000	0.903129   
3513.000000	0.908756   
3512.000000	0.926613   
3511.000000	0.951600   
3510.000000	0.965929   
3509.000000	0.952911   
3508.000000	0.919389   
3507.000000	0.903153   
3506.000000	0.933980   
3505.000000	0.986170   
3504.000000	1.004195   
3503.000000	0.979614   
3502.000000	0.958895   
3501.000000	0.969004   
3500.000000	0.988984   
3499.000000	1.002645   
3498.000000	1.024436   
3497.000000	1.059150   
3496.000000	1.084136   
3495.000000	1.085996   
3494.000000	1.077580   
3493.000000	1.075077   
3492.000000	1.089286   
3491.000000	1.128029   
3490.000000	1.176810   
3489.000000	1.197504   
3488.000000	1.177644   
3487.000000	1.153707   
3486.000000	1.153755   
3485.000000	1.154303   
3484.000000	1.129889   
3483.000000	1.106595   
3482.000000	1.125764   
3481.000000	1.184749   
3480.000000	1.246976   
3479.000000	1.284265   
3478.000000	1.288437   
3477.000000	1.266217   
3476.000000	1.238822   
3475.000000	1.232194   
3474.000000	1.254391   
3473.000000	1.286149   
3472.000000	1.298594   
3471.000000	1.289463   
3470.000000	1.292967   
3469.000000	1.333355   
3468.000000	1.382994   
3467.000000	1.403880   
3466.000000	1.410460   
3465.000000	1.441287   
3464.000000	1.489305   
3463.000000	1.514887   
3462.000000	1.511406   
3461.000000	1.505064   
3460.000000	1.505875   
3459.000000	1.504302   
3458.000000	1.505398   
3457.000000	1.528239   
3456.000000	1.578617   
3455.000000	1.642847   
3454.000000	1.698112   
3453.000000	1.721429   
3452.000000	1.708889   
3451.000000	1.691555   
3450.000000	1.705837   
3449.000000	1.745557   
3448.000000	1.774454   
3447.000000	1.785898   
3446.000000	1.808547   
3445.000000	1.851201   
3444.000000	1.885986   
3443.000000	1.893281   
3442.000000	1.884245   
3441.000000	1.874303   
3440.000000	1.868009   
3439.000000	1.872706   
3438.000000	1.901888   
3437.000000	1.956272   
3436.000000	2.014636   
3435.000000	2.050304   
3434.000000	2.058291   
3433.000000	2.059674   
3432.000000	2.073597   
3431.000000	2.095484   
3430.000000	2.113175   
3429.000000	2.125167   
3428.000000	2.129507   
3427.000000	2.117562   
3426.000000	2.096652   
3425.000000	2.094483   
3424.000000	2.123117   
3423.000000	2.157378   
3422.000000	2.163338   
3421.000000	2.138829   
3420.000000	2.112746   
3419.000000	2.110362   
3418.000000	2.127981   
3417.000000	2.142357   
3416.000000	2.140688   
3415.000000	2.133464   
3414.000000	2.137589   
3413.000000	2.156758   
3412.000000	2.183079   
3411.000000	2.210950   
3410.000000	2.243518   
3409.000000	2.284145   
3408.000000	2.326178   
3407.000000	2.352309   
3406.000000	2.348327   
3405.000000	2.318000   
3404.000000	2.281904   
3403.000000	2.261042   
3402.000000	2.263474   
3401.000000	2.283287   
3400.000000	2.308821   
3399.000000	2.331662   
3398.000000	2.347421   
3397.000000	2.352571   
3396.000000	2.348732   
3395.000000	2.348971   
3394.000000	2.363991   
3393.000000	2.383637   
3392.000000	2.390766   
3391.000000	2.390503   
3390.000000	2.400374   
3389.000000	2.415823   
3388.000000	2.414774   
3387.000000	2.396869   
3386.000000	2.387380   
3385.000000	2.398920   
3384.000000	2.414131   
3383.000000	2.411055   
3382.000000	2.391982   
3381.000000	2.378726   
3380.000000	2.385282   
3379.000000	2.401995   
3378.000000	2.410101   
3377.000000	2.405333   
3376.000000	2.398777   
3375.000000	2.403187   
3374.000000	2.427935   
3373.000000	2.476549   
3372.000000	2.537393   
3371.000000	2.584838   
3370.000000	2.600145   
3369.000000	2.584838   
3368.000000	2.550458   
3367.000000	2.509355   
3366.000000	2.476263   
3365.000000	2.465748   
3364.000000	2.481126   
3363.000000	2.513718   
3362.000000	2.551937   
3361.000000	2.586460   
3360.000000	2.607583   
3359.000000	2.608156   
3358.000000	2.591991   
3357.000000	2.572751   
3356.000000	2.562451   
3355.000000	2.562332   
3354.000000	2.564954   
3353.000000	2.565240   
3352.000000	2.567481   
3351.000000	2.576470   
3350.000000	2.586507   
3349.000000	2.583122   
3348.000000	2.555727   
3347.000000	2.506637   
3346.000000	2.455592   
3345.000000	2.436423   
3344.000000	2.470159   
3343.000000	2.534699   
3342.000000	2.579832   
3341.000000	2.581429   
3340.000000	2.562332   
3339.000000	2.555418   
3338.000000	2.567219   
3337.000000	2.582859   
3336.000000	2.589154   
3335.000000	2.584481   
3334.000000	2.574348   
3333.000000	2.564930   
3332.000000	2.561664   
3331.000000	2.567458   
3330.000000	2.573370   
3329.000000	2.561163   
3328.000000	2.531313   
3327.000000	2.511858   
3326.000000	2.517938   
3325.000000	2.523398   
3324.000000	2.503466   
3323.000000	2.477622   
3322.000000	2.477264   
3321.000000	2.496743   
3320.000000	2.508211   
3319.000000	2.503418   
3318.000000	2.493858   
3317.000000	2.486586   
3316.000000	2.480125   
3315.000000	2.474474   
3314.000000	2.474308   
3313.000000	2.481961   
3312.000000	2.491116   
3311.000000	2.491259   
3310.000000	2.479505   
3309.000000	2.462387   
3308.000000	2.447533   
3307.000000	2.444219   
3306.000000	2.464580   
3305.000000	2.503299   
3304.000000	2.524447   
3303.000000	2.495646   
3302.000000	2.431583   
3301.000000	2.380347   
3300.000000	2.370691   
3299.000000	2.391672   
3298.000000	2.415752   
3297.000000	2.422761   
3296.000000	2.408051   
3295.000000	2.383446   
3294.000000	2.369379   
3293.000000	2.378368   
3292.000000	2.405309   
3291.000000	2.434682   
3290.000000	2.453231   
3289.000000	2.455163   
3288.000000	2.440690   
3287.000000	2.413535   
3286.000000	2.379655   
3285.000000	2.346968   
3284.000000	2.327275   
3283.000000	2.333617   
3282.000000	2.366495   
3281.000000	2.406072   
3280.000000	2.429103   
3279.000000	2.432346   
3278.000000	2.426981   
3277.000000	2.417540   
3276.000000	2.402496   
3275.000000	2.388620   
3274.000000	2.386856   
3273.000000	2.394056   
3272.000000	2.393126   
3271.000000	2.375102   
3270.000000	2.355098   
3269.000000	2.357363   
3268.000000	2.384853   
3267.000000	2.414774   
3266.000000	2.429890   
3265.000000	2.438092   
3264.000000	2.449154   
3263.000000	2.453565   
3262.000000	2.441167   
3261.000000	2.420663   
3260.000000	2.405881   
3259.000000	2.400469   
3258.000000	2.401876   
3257.000000	2.404737   
3256.000000	2.397131   
3255.000000	2.372384   
3254.000000	2.346682   
3253.000000	2.348303   
3252.000000	2.384662   
3251.000000	2.430248   
3250.000000	2.452063   
3249.000000	2.445077   
3248.000000	2.435541   
3247.000000	2.444219   
3246.000000	2.458453   
3245.000000	2.452015   
3244.000000	2.423667   
3243.000000	2.399349   
3242.000000	2.404093   
3241.000000	2.443623   
3240.000000	2.501392   
3239.000000	2.541947   
3238.000000	2.532005   
3237.000000	2.473521   
3236.000000	2.409839   
3235.000000	2.388215   
3234.000000	2.416157   
3233.000000	2.458238   
3232.000000	2.475953   
3231.000000	2.465820   
3230.000000	2.453708   
3229.000000	2.457332   
3228.000000	2.469205   
3227.000000	2.475547   
3226.000000	2.475142   
3225.000000	2.472996   
3224.000000	2.468252   
3223.000000	2.456831   
3222.000000	2.440428   
3221.000000	2.428436   
3220.000000	2.428722   
3219.000000	2.439427   
3218.000000	2.448511   
3217.000000	2.446889   
3216.000000	2.442264   
3215.000000	2.449798   
3214.000000	2.468204   
3213.000000	2.475404   
3212.000000	2.456521   
3211.000000	2.424573   
3210.000000	2.405238   
3209.000000	2.409648   
3208.000000	2.431559   
3207.000000	2.460169   
3206.000000	2.487301   
3205.000000	2.507519   
3204.000000	2.518510   
3203.000000	2.518939   
3202.000000	2.506232   
3201.000000	2.479910   
3200.000000	2.445459   
3199.000000	2.415084   
3198.000000	2.400350   
3197.000000	2.400326   
3196.000000	2.398705   
3195.000000	2.382373   
3194.000000	2.356815   
3193.000000	2.332353   
3192.000000	2.308368   
3191.000000	2.289128   
3190.000000	2.294182   
3189.000000	2.330732   
3188.000000	2.373194   
3187.000000	2.393484   
3186.000000	2.394461   
3185.000000	2.393078   
3184.000000	2.387619   
3183.000000	2.362442   
3182.000000	2.318596   
3181.000000	2.280473   
3180.000000	2.268886   
3179.000000	2.275490   
3178.000000	2.275896   
3177.000000	2.265024   
3176.000000	2.262330   
3175.000000	2.279257   
3174.000000	2.298331   
3173.000000	2.295041   
3172.000000	2.267837   
3171.000000	2.237081   
3170.000000	2.221012   
3169.000000	2.219915   
3168.000000	2.224397   
3167.000000	2.231454   
3166.000000	2.245807   
3165.000000	2.266573   
3164.000000	2.280020   
3163.000000	2.273344   
3162.000000	2.252888   
3161.000000	2.239799   
3160.000000	2.246332   
3159.000000	2.263522   
3158.000000	2.274250   
3157.000000	2.271962   
3156.000000	2.257847   
3155.000000	2.230191   
3154.000000	2.187538   
3153.000000	2.138662   
3152.000000	2.099204   
3151.000000	2.079081   
3150.000000	2.074861   
3149.000000	2.073287   
3148.000000	2.064228   
3147.000000	2.054810   
3146.000000	2.065801   
3145.000000	2.105283   
3144.000000	2.150917   
3143.000000	2.170109   
3142.000000	2.155423   
3141.000000	2.129364   
3140.000000	2.115821   
3139.000000	2.116227   
3138.000000	2.116942   
3137.000000	2.111887   
3136.000000	2.110981   
3135.000000	2.123808   
3134.000000	2.145409   
3133.000000	2.163171   
3132.000000	2.169275   
3131.000000	2.158951   
3130.000000	2.128529   
3129.000000	2.086830   
3128.000000	2.056407   
3127.000000	2.051520   
3126.000000	2.061557   
3125.000000	2.065300   
3124.000000	2.054262   
3123.000000	2.036404   
3122.000000	2.026844   
3121.000000	2.037501   
3120.000000	2.064967   
3119.000000	2.091264   
3118.000000	2.101445   
3117.000000	2.098560   
3116.000000	2.092552   
3115.000000	2.082633   
3114.000000	2.064275   
3113.000000	2.047085   
3112.000000	2.050089   
3111.000000	2.075505   
3110.000000	2.094578   
3109.000000	2.073121   
3108.000000	2.016329   
3107.000000	1.970863   
3106.000000	1.972794   
3105.000000	2.012753   
3104.000000	2.065110   
3103.000000	2.121686   
3102.000000	2.176117   
3101.000000	2.205038   
3100.000000	2.194666   
3099.000000	2.163410   
3098.000000	2.137947   
3097.000000	2.123880   
3096.000000	2.111506   
3095.000000	2.094507   
3094.000000	2.074432   
3093.000000	2.054333   
3092.000000	2.034640   
3091.000000	2.015590   
3090.000000	2.002263   
3089.000000	1.999473   
3088.000000	2.004480   
3087.000000	2.014136   
3086.000000	2.030920   
3085.000000	2.048063   
3084.000000	2.042150   
3083.000000	2.002835   
3082.000000	1.957440   
3081.000000	1.942801   
3080.000000	1.963448   
3079.000000	1.995325   
3078.000000	2.021145   
3077.000000	2.044844   
3076.000000	2.074885   
3075.000000	2.104806   
3074.000000	2.119231   
3073.000000	2.114248   
3072.000000	2.102494   
3071.000000	2.094340   
3070.000000	2.087354   
3069.000000	2.077555   
3068.000000	2.069091   
3067.000000	2.065563   
3066.000000	2.063465   
3065.000000	2.059769   
3064.000000	2.059030   
3063.000000	2.068066   
3062.000000	2.085304   
3061.000000	2.100205   
3060.000000	2.108335   
3059.000000	2.119851   
3058.000000	2.144813   
3057.000000	2.176213   
3056.000000	2.200818   
3055.000000	2.215480   
3054.000000	2.218294   
3053.000000	2.198481   
3052.000000	2.151536   
3051.000000	2.098417   
3050.000000	2.075171   
3049.000000	2.100276   
3048.000000	2.155351   
3047.000000	2.204608   
3046.000000	2.231454   
3045.000000	2.240681   
3044.000000	2.231478   
3043.000000	2.199745   
3042.000000	2.169394   
3041.000000	2.178955   
3040.000000	2.226352   
3039.000000	2.265620   
3038.000000	2.267384   
3037.000000	2.250528   
3036.000000	2.245855   
3035.000000	2.254605   
3034.000000	2.256441   
3033.000000	2.243113   
3032.000000	2.230286   
3031.000000	2.235126   
3030.000000	2.253460   
3029.000000	2.270221   
3028.000000	2.285528   
3027.000000	2.311944   
3026.000000	2.352285   
3025.000000	2.396106   
3024.000000	2.435851   
3023.000000	2.470421   
3022.000000	2.499008   
3021.000000	2.519607   
3020.000000	2.530312   
3019.000000	2.527165   
3018.000000	2.515530   
3017.000000	2.521157   
3016.000000	2.568697   
3015.000000	2.644252   
3014.000000	2.707266   
3013.000000	2.741408   
3012.000000	2.767395   
3011.000000	2.804422   
3010.000000	2.850127   
3009.000000	2.900052   
3008.000000	2.953839   
3007.000000	3.001427   
3006.000000	3.031587   
3005.000000	3.056240   
3004.000000	3.100323   
3003.000000	3.172874   
3002.000000	3.265190   
3001.000000	3.369402   
3000.000000	3.476357   
2999.000000	3.574037   
2998.000000	3.659915   
2997.000000	3.750705   
2996.000000	3.862762   
2995.000000	3.994631   
2994.000000	4.130125   
2993.000000	4.259872   
2992.000000	4.386615   
2991.000000	4.512691   
2990.000000	4.626655   
2989.000000	4.721951   
2988.000000	4.821348   
2987.000000	4.962849   
2986.000000	5.153799   
2985.000000	5.362939   
2984.000000	5.559730   
2983.000000	5.742645   
2982.000000	5.923342   
2981.000000	6.102848   
2980.000000	6.275987   
2979.000000	6.447935   
2978.000000	6.637334   
2977.000000	6.861281   
2976.000000	7.118988   
2975.000000	7.387828   
2974.000000	7.643508   
2973.000000	7.884764   
2972.000000	8.130502   
2971.000000	8.387756   
2970.000000	8.640599   
2969.000000	8.879637   
2968.000000	9.117197   
2967.000000	9.361505   
2966.000000	9.596800   
2965.000000	9.813308   
2964.000000	10.024213  
2963.000000	10.240316  
2962.000000	10.450196  
2961.000000	10.643410  
2960.000000	10.823702  
2959.000000	10.991024  
2958.000000	11.134409  
2957.000000	11.250400  
2956.000000	11.348104  
2955.000000	11.432266  
2954.000000	11.501359  
2953.000000	11.558938  
2952.000000	11.612129  
2951.000000	11.658787  
2950.000000	11.697721  
2949.000000	11.736655  
2948.000000	11.786127  
2947.000000	11.840724  
2946.000000	11.889576  
2945.000000	11.925530  
2944.000000	11.947441  
2943.000000	11.943125  
2942.000000	11.895561  
2941.000000	11.801338  
2940.000000	11.693835  
2939.000000	11.615371  
2938.000000	11.570596  
2937.000000	11.517190  
2936.000000	11.418747  
2935.000000	11.278438  
2934.000000	11.117839  
2933.000000	10.947728  
2932.000000	10.774493  
2931.000000	10.606861  
2930.000000	10.445046  
2929.000000	10.278248  
2928.000000	10.099172  
2927.000000	9.909939   
2926.000000	9.715819   
2925.000000	9.525585   
2924.000000	9.354138   
2923.000000	9.214854   
2922.000000	9.103846   
2921.000000	8.998537   
2920.000000	8.873653   
2919.000000	8.723640   
2918.000000	8.564281   
2917.000000	8.410477   
2916.000000	8.261275   
2915.000000	8.109498   
2914.000000	7.959532   
2913.000000	7.822394   
2912.000000	7.698535   
2911.000000	7.572650   
2910.000000	7.428169   
2909.000000	7.264208   
2908.000000	7.097601   
2907.000000	6.947636   
2906.000000	6.820416   
2905.000000	6.706833   
2904.000000	6.592988   
2903.000000	6.471037   
2902.000000	6.343913   
2901.000000	6.221032   
2900.000000	6.103110   
2899.000000	5.973315   
2898.000000	5.816793   
2897.000000	5.645060   
2896.000000	5.482697   
2895.000000	5.341458   
2894.000000	5.226182   
2893.000000	5.144476   
2892.000000	5.077886   
2891.000000	4.980611   
2890.000000	4.844641   
2889.000000	4.724502   
2888.000000	4.655432   
2887.000000	4.599046   
2886.000000	4.510474   
2885.000000	4.405164   
2884.000000	4.312729   
2883.000000	4.221892   
2882.000000	4.112052   
2881.000000	3.997898   
2880.000000	3.906106   
2879.000000	3.836917   
2878.000000	3.767371   
2877.000000	3.679060   
2876.000000	3.573179   
2875.000000	3.467321   
2874.000000	3.378653   
2873.000000	3.309202   
2872.000000	3.248739   
2871.000000	3.184819   
2870.000000	3.111529   
2869.000000	3.039407   
2868.000000	2.990245   
2867.000000	2.965426   
2866.000000	2.936649   
2865.000000	2.887773   
2864.000000	2.841210   
2863.000000	2.811837   
2862.000000	2.776455   
2861.000000	2.721667   
2860.000000	2.680611   
2859.000000	2.678275   
2858.000000	2.688145   
2857.000000	2.678704   
2856.000000	2.655482   
2855.000000	2.624344   
2854.000000	2.570271   
2853.000000	2.500367   
2852.000000	2.450561   
2851.000000	2.430462   
2850.000000	2.416038   
2849.000000	2.401375   
2848.000000	2.400064   
2847.000000	2.397537   
2846.000000	2.363514   
2845.000000	2.307939   
2844.000000	2.266788   
2843.000000	2.241635   
2842.000000	2.204751   
2841.000000	2.153849   
2840.000000	2.114987   
2839.000000	2.098608   
2838.000000	2.087450   
2837.000000	2.066993   
2836.000000	2.046251   
2835.000000	2.045178   
2834.000000	2.066278   
2833.000000	2.089881   
2832.000000	2.099490   
2831.000000	2.097511   
2830.000000	2.087473   
2829.000000	2.063632   
2828.000000	2.031970   
2827.000000	2.013301   
2826.000000	2.010798   
2825.000000	2.005839   
2824.000000	1.994633   
2823.000000	1.995396   
2822.000000	2.012848   
2821.000000	2.032637   
2820.000000	2.049589   
2819.000000	2.063608   
2818.000000	2.055525   
2817.000000	2.007961   
2816.000000	1.944565   
2815.000000	1.907110   
2814.000000	1.902484   
2813.000000	1.908445   
2812.000000	1.917505   
2811.000000	1.937603   
2810.000000	1.963639   
2809.000000	1.978111   
2808.000000	1.971077   
2807.000000	1.942348   
2806.000000	1.898932   
2805.000000	1.862454   
2804.000000	1.861190   
2803.000000	1.899576   
2802.000000	1.947879   
2801.000000	1.973223   
2800.000000	1.970601   
2799.000000	1.958250   
2798.000000	1.954269   
2797.000000	1.962471   
2796.000000	1.972246   
2795.000000	1.968860   
2794.000000	1.951313   
2793.000000	1.937413   
2792.000000	1.941466   
2791.000000	1.954102   
2790.000000	1.958250   
2789.000000	1.957106   
2788.000000	1.967740   
2787.000000	1.991724   
2786.000000	2.007961   
2785.000000	1.997303   
2784.000000	1.967811   
2783.000000	1.948094   
2782.000000	1.953530   
2781.000000	1.972317   
2780.000000	1.986312   
2779.000000	1.988267   
2778.000000	1.968836   
2777.000000	1.915788   
2776.000000	1.844477   
2775.000000	1.798343   
2774.000000	1.798081   
2773.000000	1.816296   
2772.000000	1.818966   
2771.000000	1.806664   
2770.000000	1.802730   
2769.000000	1.820945   
2768.000000	1.856660   
2767.000000	1.894450   
2766.000000	1.917958   
2765.000000	1.918983   
2764.000000	1.900672   
2763.000000	1.872301   
2762.000000	1.842379   
2761.000000	1.814866   
2760.000000	1.790165   
2759.000000	1.770114   
2758.000000	1.761126   
2757.000000	1.767444   
2756.000000	1.784586   
2755.000000	1.805281   
2754.000000	1.823401   
2753.000000	1.829457   
2752.000000	1.816105   
2751.000000	1.795268   
2750.000000	1.791572   
2749.000000	1.809597   
2748.000000	1.823568   
2747.000000	1.809954   
2746.000000	1.777672   
2745.000000	1.756048   
2744.000000	1.758646   
2743.000000	1.769018   
2742.000000	1.768493   
2741.000000	1.766610   
2740.000000	1.783490   
2739.000000	1.811528   
2738.000000	1.825928   
2737.000000	1.826167   
2736.000000	1.828002   
2735.000000	1.825189   
2734.000000	1.803326   
2733.000000	1.778626   
2732.000000	1.776266   
2731.000000	1.784992   
2730.000000	1.775860   
2729.000000	1.748633   
2728.000000	1.725625   
2727.000000	1.717329   
2726.000000	1.720976   
2725.000000	1.737499   
2724.000000	1.769137   
2723.000000	1.805019   
2722.000000	1.822781   
2721.000000	1.810169   
2720.000000	1.781511   
2719.000000	1.761913   
2718.000000	1.754546   
2717.000000	1.741790   
2716.000000	1.719427   
2715.000000	1.703429   
2714.000000	1.699209   
2713.000000	1.693105   
2712.000000	1.680445   
2711.000000	1.673316   
2710.000000	1.679158   
2709.000000	1.695680   
2708.000000	1.723289   
2707.000000	1.760506   
2706.000000	1.789069   
2705.000000	1.787638   
2704.000000	1.756978   
2703.000000	1.716184   
2702.000000	1.682424   
2701.000000	1.665735   
2700.000000	1.673626   
2699.000000	1.703357   
2698.000000	1.740217   
2697.000000	1.774001   
2696.000000	1.803469   
2695.000000	1.818060   
2694.000000	1.800370   
2693.000000	1.756596   
2692.000000	1.717805   
2691.000000	1.700234   
2690.000000	1.695299   
2689.000000	1.702404   
2688.000000	1.733160   
2687.000000	1.777577   
2686.000000	1.803588   
2685.000000	1.798343   
2684.000000	1.781821   
2683.000000	1.775002   
2682.000000	1.778483   
2681.000000	1.782941   
2680.000000	1.785039   
2679.000000	1.786804   
2678.000000	1.784539   
2677.000000	1.768541   
2676.000000	1.743507   
2675.000000	1.731061   
2674.000000	1.734590   
2673.000000	1.729750   
2672.000000	1.713538   
2671.000000	1.720142   
2670.000000	1.758790   
2669.000000	1.786780   
2668.000000	1.779413   
2667.000000	1.770353   
2666.000000	1.787805   
2665.000000	1.804232   
2664.000000	1.782965   
2663.000000	1.736640   
2662.000000	1.709389   
2661.000000	1.719212   
2660.000000	1.740956   
2659.000000	1.744890   
2658.000000	1.736164   
2657.000000	1.739096   
2656.000000	1.755118   
2655.000000	1.767063   
2654.000000	1.776528   
2653.000000	1.796483   
2652.000000	1.812386   
2651.000000	1.792836   
2650.000000	1.735925   
2649.000000	1.674270   
2648.000000	1.639151   
2647.000000	1.639175   
2646.000000	1.662850   
2645.000000	1.685404   
2644.000000	1.684117   
2643.000000	1.658964   
2642.000000	1.633596   
2641.000000	1.633191   
2640.000000	1.657032   
2639.000000	1.675605   
2638.000000	1.663804   
2637.000000	1.634812   
2636.000000	1.622223   
2635.000000	1.630568   
2634.000000	1.634979   
2633.000000	1.626825   
2632.000000	1.623582   
2631.000000	1.631784   
2630.000000	1.635074   
2629.000000	1.622748   
2628.000000	1.603841   
2627.000000	1.586389   
2626.000000	1.566815   
2625.000000	1.545906   
2624.000000	1.540088   
2623.000000	1.564621   
2622.000000	1.608753   
2621.000000	1.638317   
2620.000000	1.629996   
2619.000000	1.599240   
2618.000000	1.583409   
2617.000000	1.595783   
2616.000000	1.605057   
2615.000000	1.573252   
2614.000000	1.509213   
2613.000000	1.461482   
2612.000000	1.455616   
2611.000000	1.468133   
2610.000000	1.470923   
2609.000000	1.469254   
2608.000000	1.480078   
2607.000000	1.501059   
2606.000000	1.516175   
2605.000000	1.518535   
2604.000000	1.512932   
2603.000000	1.502513   
2602.000000	1.482915   
2601.000000	1.452803   
2600.000000	1.424336   
2599.000000	1.413893   
2598.000000	1.423215   
2597.000000	1.442527   
2596.000000	1.468968   
2595.000000	1.503777   
2594.000000	1.537823   
2593.000000	1.558971   
2592.000000	1.564908   
2591.000000	1.557040   
2590.000000	1.537942   
2589.000000	1.524829   
2588.000000	1.537299   
2587.000000	1.558518   
2586.000000	1.544284   
2585.000000	1.487660   
2584.000000	1.437473   
2583.000000	1.435089   
2582.000000	1.465892   
2581.000000	1.489830   
2580.000000	1.490330   
2579.000000	1.478934   
2578.000000	1.471638   
2577.000000	1.476073   
2576.000000	1.491069   
2575.000000	1.509976   
2574.000000	1.526165   
2573.000000	1.535105   
2572.000000	1.530098   
2571.000000	1.503753   
2570.000000	1.460194   
2569.000000	1.416373   
2568.000000	1.383805   
2567.000000	1.363277   
2566.000000	1.365160   
2565.000000	1.410508   
2564.000000	1.496171   
2563.000000	1.574945   
2562.000000	1.596093   
2561.000000	1.557803   
2560.000000	1.502966   
2559.000000	1.471590   
2558.000000	1.469016   
2557.000000	1.477766   
2556.000000	1.486277   
2555.000000	1.496052   
2554.000000	1.504158   
2553.000000	1.494050   
2552.000000	1.454830   
2551.000000	1.403164   
2550.000000	1.373076   
2549.000000	1.385188   
2548.000000	1.427912   
2547.000000	1.469755   
2546.000000	1.487183   
2545.000000	1.485013   
2544.000000	1.485323   
2543.000000	1.492357   
2542.000000	1.488280   
2541.000000	1.474380   
2540.000000	1.486301   
2539.000000	1.540255   
2538.000000	1.596403   
2537.000000	1.609468   
2536.000000	1.585507   
2535.000000	1.557302   
2534.000000	1.535081   
2533.000000	1.512813   
2532.000000	1.497578   
2531.000000	1.500415   
2530.000000	1.514363   
2529.000000	1.524591   
2528.000000	1.527619   
2527.000000	1.532053   
2526.000000	1.546096   
2525.000000	1.566624   
2524.000000	1.575708   
2523.000000	1.554226   
2522.000000	1.510477   
2521.000000	1.483988   
2520.000000	1.499557   
2519.000000	1.529741   
2518.000000	1.530218   
2517.000000	1.499462   
2516.000000	1.471233   
2515.000000	1.463699   
2514.000000	1.471543   
2513.000000	1.489758   
2512.000000	1.511025   
2511.000000	1.515889   
2510.000000	1.494956   
2509.000000	1.467967   
2508.000000	1.462197   
2507.000000	1.479959   
2506.000000	1.500177   
2505.000000	1.506710   
2504.000000	1.504874   
2503.000000	1.505756   
2502.000000	1.500988   
2501.000000	1.475977   
2500.000000	1.447677   
2499.000000	1.451444   
2498.000000	1.485872   
2497.000000	1.512408   
2496.000000	1.512193   
2495.000000	1.499223   
2494.000000	1.481962   
2493.000000	1.460766   
2492.000000	1.455640   
2491.000000	1.482701   
2490.000000	1.515078   
2489.000000	1.518154   
2488.000000	1.505875   
2487.000000	1.515579   
2486.000000	1.546645   
2485.000000	1.566195   
2484.000000	1.559042   
2483.000000	1.539039   
2482.000000	1.523852   
2481.000000	1.520204   
2480.000000	1.526165   
2479.000000	1.534223   
2478.000000	1.536560   
2477.000000	1.533675   
2476.000000	1.533722   
2475.000000	1.542639   
2474.000000	1.558375   
2473.000000	1.573085   
2472.000000	1.578259   
2471.000000	1.571273   
2470.000000	1.559782   
2469.000000	1.558804   
2468.000000	1.578831   
2467.000000	1.612758   
2466.000000	1.636004   
2465.000000	1.626825   
2464.000000	1.588463   
2463.000000	1.548719   
2462.000000	1.536250   
2461.000000	1.555418   
2460.000000	1.586151   
2459.000000	1.609325   
2458.000000	1.628017   
2457.000000	1.655888   
2456.000000	1.687455   
2455.000000	1.696133   
2454.000000	1.670145   
2453.000000	1.635098   
2452.000000	1.626014   
2451.000000	1.645088   
2450.000000	1.659727   
2449.000000	1.643061   
2448.000000	1.605296   
2447.000000	1.580572   
2446.000000	1.586341   
2445.000000	1.606273   
2444.000000	1.612949   
2443.000000	1.598954   
2442.000000	1.577877   
2441.000000	1.563692   
2440.000000	1.558899   
2439.000000	1.556730   
2438.000000	1.551699   
2437.000000	1.551222   
2436.000000	1.569390   
2435.000000	1.600909   
2434.000000	1.620817   
2433.000000	1.625633   
2432.000000	1.645612   
2431.000000	1.690936   
2430.000000	1.720285   
2429.000000	1.696801   
2428.000000	1.647138   
2427.000000	1.626491   
2426.000000	1.646780   
2425.000000	1.674056   
2424.000000	1.681184   
2423.000000	1.676082   
2422.000000	1.685285   
2421.000000	1.722335   
2420.000000	1.769280   
2419.000000	1.790142   
2418.000000	1.772332   
2417.000000	1.748681   
2416.000000	1.757836   
2415.000000	1.790738   
2414.000000	1.805925   
2413.000000	1.787662   
2412.000000	1.757669   
2411.000000	1.737499   
2410.000000	1.736307   
2409.000000	1.761746   
2408.000000	1.803469   
2407.000000	1.821184   
2406.000000	1.789593   
2405.000000	1.744246   
2404.000000	1.747822   
2403.000000	1.815533   
2402.000000	1.895499   
2401.000000	1.924681   
2400.000000	1.892423   
2399.000000	1.841235   
2398.000000	1.809811   
2397.000000	1.794576   
2396.000000	1.774621   
2395.000000	1.749444   
2394.000000	1.734662   
2393.000000	1.739740   
2392.000000	1.764202   
2391.000000	1.804065   
2390.000000	1.850175   
2389.000000	1.887989   
2388.000000	1.906871   
2387.000000	1.904368   
2386.000000	1.882004   
2385.000000	1.848578   
2384.000000	1.822876   
2383.000000	1.818013   
2382.000000	1.830601   
2381.000000	1.857471   
2380.000000	1.905202   
2379.000000	1.961374   
2378.000000	1.986432   
2377.000000	1.968955   
2376.000000	1.954269   
2375.000000	1.976990   
2374.000000	2.005982   
2373.000000	1.998972   
2372.000000	1.968765   
2371.000000	1.952767   
2370.000000	1.956820   
2369.000000	1.966762   
2368.000000	1.976704   
2367.000000	1.978731   
2366.000000	1.964020   
2365.000000	1.949644   
2364.000000	1.964139   
2363.000000	2.000451   
2362.000000	2.022695   
2361.000000	2.020454   
2360.000000	2.015757   
2359.000000	2.019715   
2358.000000	2.022480   
2357.000000	2.024912   
2356.000000	2.043318   
2355.000000	2.080011   
2354.000000	2.114701   
2353.000000	2.128314   
2352.000000	2.120590   
2351.000000	2.104282   
2350.000000	2.089190   
2349.000000	2.075982   
2348.000000	2.064442   
2347.000000	2.061796   
2346.000000	2.073550   
2345.000000	2.096056   
2344.000000	2.124714   
2343.000000	2.157974   
2342.000000	2.185726   
2341.000000	2.194285   
2340.000000	2.193546   
2339.000000	2.210068   
2338.000000	2.245330   
2337.000000	2.273941   
2336.000000	2.288603   
2335.000000	2.306747   
2334.000000	2.332711   
2333.000000	2.358126   
2332.000000	2.392911   
2331.000000	2.444553   
2330.000000	2.477240   
2329.000000	2.450919   
2328.000000	2.386283   
2327.000000	2.335786   
2326.000000	2.310395   
2325.000000	2.291226   
2324.000000	2.284860   
2323.000000	2.312636   
2322.000000	2.366733   
2321.000000	2.421116   
2320.000000	2.467441   
2319.000000	2.508831   
2318.000000	2.537083   
2317.000000	2.539706   
2316.000000	2.518439   
2315.000000	2.487659   
2314.000000	2.459669   
2313.000000	2.440285   
2312.000000	2.430987   
2311.000000	2.434539   
2310.000000	2.456212   
2309.000000	2.498555   
2308.000000	2.556133   
2307.000000	2.616930   
2306.000000	2.667188   
2305.000000	2.693796   
2304.000000	2.687621   
2303.000000	2.647185   
2302.000000	2.579879   
2301.000000	2.504110   
2300.000000	2.448272   
2299.000000	2.439451   
2298.000000	2.483320   
2297.000000	2.557873   
2296.000000	2.630949   
2295.000000	2.685284   
2294.000000	2.726221   
2293.000000	2.758789   
2292.000000	2.765107   
2291.000000	2.720332   
2290.000000	2.638363   
2289.000000	2.575922   
2288.000000	2.575731   
2287.000000	2.627372   
2286.000000	2.695226   
2285.000000	2.756381   
2284.000000	2.799081   
2283.000000	2.814149   
2282.000000	2.799224   
2281.000000	2.756857   
2280.000000	2.687406   
2279.000000	2.600884   
2278.000000	2.532339   
2277.000000	2.526783   
2276.000000	2.596926   
2275.000000	2.695822   
2274.000000	2.750658   
2273.000000	2.745819   
2272.000000	2.743577   
2271.000000	2.787804   
2270.000000	2.832436   
2269.000000	2.825832   
2268.000000	2.803707   
2267.000000	2.825474   
2266.000000	2.882194   
2265.000000	2.940440   
2264.000000	3.006243   
2263.000000	3.076314   
2262.000000	3.104901   
2261.000000	3.075075   
2260.000000	3.031420   
2259.000000	2.996158   
2258.000000	2.931833   
2257.000000	2.821779   
2256.000000	2.724313   
2255.000000	2.710771   
2254.000000	2.781558   
2253.000000	2.867794   
2252.000000	2.910184   
2251.000000	2.917170   
2250.000000	2.936244   
2249.000000	2.983689   
2248.000000	3.036975   
2247.000000	3.083276   
2246.000000	3.131580   
2245.000000	3.181982   
2244.000000	3.222107   
2243.000000	3.249168   
2242.000000	3.265142   
2241.000000	3.266167   
2240.000000	3.256750   
2239.000000	3.257250   
2238.000000	3.271007   
2237.000000	3.266596   
2236.000000	3.209877   
2235.000000	3.111910   
2234.000000	3.033661   
2233.000000	3.029680   
2232.000000	3.088164   
2231.000000	3.147888   
2230.000000	3.170394   
2229.000000	3.167271   
2228.000000	3.161311   
2227.000000	3.164839   
2226.000000	3.200411   
2225.000000	3.287672   
2224.000000	3.401374   
2223.000000	3.483223   
2222.000000	3.505396   
2221.000000	3.495740   
2220.000000	3.499841   
2219.000000	3.533983   
2218.000000	3.575372   
2217.000000	3.586840   
2216.000000	3.547549   
2215.000000	3.459978   
2214.000000	3.352880   
2213.000000	3.295087   
2212.000000	3.353905   
2211.000000	3.502559   
2210.000000	3.628182   
2209.000000	3.677463   
2208.000000	3.712964   
2207.000000	3.783035   
2206.000000	3.837466   
2205.000000	3.830313   
2204.000000	3.794622   
2203.000000	3.768324   
2202.000000	3.743314   
2201.000000	3.723478   
2200.000000	3.739356   
2199.000000	3.780841   
2198.000000	3.799438   
2197.000000	3.787875   
2196.000000	3.788828   
2195.000000	3.815674   
2194.000000	3.822517   
2193.000000	3.760147   
2192.000000	3.631901   
2191.000000	3.494787   
2190.000000	3.428936   
2189.000000	3.486251   
2188.000000	3.647875   
2187.000000	3.835535   
2186.000000	3.969907   
2185.000000	4.021143   
2184.000000	4.009866   
2183.000000	3.974103   
2182.000000	3.941655   
2181.000000	3.928589   
2180.000000	3.940606   
2179.000000	3.957414   
2178.000000	3.925752   
2177.000000	3.809046   
2176.000000	3.660535   
2175.000000	3.596663   
2174.000000	3.676056   
2173.000000	3.835606   
2172.000000	3.955626   
2171.000000	3.968667   
2170.000000	3.900933   
2169.000000	3.843450   
2168.000000	3.869986   
2167.000000	3.945755   
2166.000000	3.936266   
2165.000000	3.754234   
2164.000000	3.486061   
2163.000000	3.319883   
2162.000000	3.366279   
2161.000000	3.586721   
2160.000000	3.862810   
2159.000000	4.079675   
2158.000000	4.176950   
2157.000000	4.169368   
2156.000000	4.098486   
2155.000000	3.955435   
2154.000000	3.712081   
2153.000000	3.443145   
2152.000000	3.325366   
2151.000000	3.456997   
2150.000000	3.747820   
2149.000000	4.023551   
2148.000000	4.183292   
2147.000000	4.231691   
2146.000000	4.216599   
2145.000000	4.175472   
2144.000000	4.116153   
2143.000000	4.031133   
2142.000000	3.945374   
2141.000000	3.925991   
2140.000000	4.008531   
2139.000000	4.142141   
2138.000000	4.249048   
2137.000000	4.308700   
2136.000000	4.336857   
2135.000000	4.323482   
2134.000000	4.251074   
2133.000000	4.155659   
2132.000000	4.115509   
2131.000000	4.167747   
2130.000000	4.272317   
2129.000000	4.356908   
2128.000000	4.384994   
2127.000000	4.377412   
2126.000000	4.371356   
2125.000000	4.366946   
2124.000000	4.326725   
2123.000000	4.240989   
2122.000000	4.169797   
2121.000000	4.190206   
2120.000000	4.308080   
2119.000000	4.444718   
2118.000000	4.515552   
2117.000000	4.508018   
2116.000000	4.473805   
2115.000000	4.456448   
2114.000000	4.451203   
2113.000000	4.445838   
2112.000000	4.462480   
2111.000000	4.508495   
2110.000000	4.525732   
2109.000000	4.470038   
2108.000000	4.401707   
2107.000000	4.403257   
2106.000000	4.461598   
2105.000000	4.513907   
2104.000000	4.531240   
2103.000000	4.478549   
2102.000000	4.316759   
2101.000000	4.141736   
2100.000000	4.148793   
2099.000000	4.352664   
2098.000000	4.524445   
2097.000000	4.508829   
2096.000000	4.414629   
2095.000000	4.409718   
2094.000000	4.513478   
2093.000000	4.656219   
2092.000000	4.769468   
2091.000000	4.777073   
2090.000000	4.646682   
2089.000000	4.475498   
2088.000000	4.416060   
2087.000000	4.492592   
2086.000000	4.568314   
2085.000000	4.515480   
2084.000000	4.378485   
2083.000000	4.326868   
2082.000000	4.443359   
2081.000000	4.612994   
2080.000000	4.691457   
2079.000000	4.697155   
2078.000000	4.732227   
2077.000000	4.810881   
2076.000000	4.876565   
2075.000000	4.902625   
2074.000000	4.870104   
2073.000000	4.754757   
2072.000000	4.613280   
2071.000000	4.556703   
2070.000000	4.568696   
2069.000000	4.503369   
2068.000000	4.327583   
2067.000000	4.199171   
2066.000000	4.254412   
2065.000000	4.458880   
2064.000000	4.701519   
2063.000000	4.907035   
2062.000000	5.036854   
2061.000000	5.087924   
2060.000000	5.103373   
2059.000000	5.099701   
2058.000000	5.007839   
2057.000000	4.761433   
2056.000000	4.426407   
2055.000000	4.173016   
2054.000000	4.116344   
2053.000000	4.220819   
2052.000000	4.365253   
2051.000000	4.474973   
2050.000000	4.562091   
2049.000000	4.645156   
2048.000000	4.692435   
2047.000000	4.689478   
2046.000000	4.698276   
2045.000000	4.788517   
2044.000000	4.931902   
2043.000000	5.015110   
2042.000000	4.954481   
2041.000000	4.779624   
2040.000000	4.619312   
2039.000000	4.603004   
2038.000000	4.743742   
2037.000000	4.917597   
2036.000000	4.993844   
2035.000000	4.964852   
2034.000000	4.925727   
2033.000000	4.945540   
2032.000000	5.001759   
2031.000000	5.036854   
2030.000000	5.031204   
2029.000000	5.002617   
2028.000000	4.966998   
2027.000000	4.930448   
2026.000000	4.923033   
2025.000000	4.993963   
2024.000000	5.135107   
2023.000000	5.245423   
2022.000000	5.213332   
2021.000000	5.038857   
2020.000000	4.843425   
2019.000000	4.755830   
2018.000000	4.805469   
2017.000000	4.911470   
2016.000000	4.961943   
2015.000000	4.919576   
2014.000000	4.855465   
2013.000000	4.866075   
2012.000000	4.969501   
2011.000000	5.104255   
2010.000000	5.212712   
2009.000000	5.283904   
2008.000000	5.324125   
2007.000000	5.334401   
2006.000000	5.324625   
2005.000000	5.318474   
2004.000000	5.330419   
2003.000000	5.341553   
2002.000000	5.322217   
2001.000000	5.283474   
2000.000000	5.276513   
1999.000000	5.317187   
1998.000000	5.354380   
1997.000000	5.357122   
1996.000000	5.371546   
1995.000000	5.431342   
1994.000000	5.483245   
1993.000000	5.474972   
1992.000000	5.439901   
1991.000000	5.430483   
1990.000000	5.442905   
1989.000000	5.461668   
1988.000000	5.502104   
1987.000000	5.563759   
1986.000000	5.611014   
1985.000000	5.630111   
1984.000000	5.642890   
1983.000000	5.653285   
1982.000000	5.641007   
1981.000000	5.611157   
1980.000000	5.595564   
1979.000000	5.604505   
1978.000000	5.621981   
1977.000000	5.641603   
1976.000000	5.667448   
1975.000000	5.689764   
1974.000000	5.695104   
1973.000000	5.694699   
1972.000000	5.716967   
1971.000000	5.769586   
1970.000000	5.825901   
1969.000000	5.853390   
1968.000000	5.850982   
1967.000000	5.848813   
1966.000000	5.866718   
1965.000000	5.891036   
1964.000000	5.901193   
1963.000000	5.899906   
1962.000000	5.901551   
1961.000000	5.907154   
1960.000000	5.906248   
1959.000000	5.892348   
1958.000000	5.866694   
1957.000000	5.840206   
1956.000000	5.833816   
1955.000000	5.860328   
1954.000000	5.905985   
1953.000000	5.943274   
1952.000000	5.959582   
1951.000000	5.954313   
1950.000000	5.924439   
1949.000000	5.884957   
1948.000000	5.882453   
1947.000000	5.944037   
1946.000000	6.029772   
1945.000000	6.076955   
1944.000000	6.069159   
1943.000000	6.023216   
1942.000000	5.954051   
1941.000000	5.896019   
1940.000000	5.905437   
1939.000000	5.984830   
1938.000000	6.060361   
1937.000000	6.077051   
1936.000000	6.057357   
1935.000000	6.034302   
1934.000000	6.001996   
1933.000000	5.965995   
1932.000000	5.963087   
1931.000000	5.999851   
1930.000000	6.042909   
1929.000000	6.084799   
1928.000000	6.149268   
1927.000000	6.229352   
1926.000000	6.286501   
1925.000000	6.312394   
1924.000000	6.329035   
1923.000000	6.336855   
1922.000000	6.319069   
1921.000000	6.286883   
1920.000000	6.268072   
1919.000000	6.262493   
1918.000000	6.246304   
1917.000000	6.214642   
1916.000000	6.191849   
1915.000000	6.202459   
1914.000000	6.247258   
1913.000000	6.301665   
1912.000000	6.334185   
1911.000000	6.331014   
1910.000000	6.309008   
1909.000000	6.300520   
1908.000000	6.327247   
1907.000000	6.385445   
1906.000000	6.449651   
1905.000000	6.493115   
1904.000000	6.507015   
1903.000000	6.498360   
1902.000000	6.474852   
1901.000000	6.449604   
1900.000000	6.448626   
1899.000000	6.478142   
1898.000000	6.497144   
1897.000000	6.475186   
1896.000000	6.454539   
1895.000000	6.489872   
1894.000000	6.558108   
1893.000000	6.604051   
1892.000000	6.629014   
1891.000000	6.650257   
1890.000000	6.635975   
1889.000000	6.575036   
1888.000000	6.538796   
1887.000000	6.581068   
1886.000000	6.645917   
1885.000000	6.656217   
1884.000000	6.624937   
1883.000000	6.609725   
1882.000000	6.626486   
1881.000000	6.664991   
1880.000000	6.719279   
1879.000000	6.763386   
1878.000000	6.765890   
1877.000000	6.748723   
1876.000000	6.763815   
1875.000000	6.807994   
1874.000000	6.835675   
1873.000000	6.845188   
1872.000000	6.866264   
1871.000000	6.878280   
1870.000000	6.834244   
1869.000000	6.755638   
1868.000000	6.722283   
1867.000000	6.770372   
1866.000000	6.859588   
1865.000000	6.936860   
1864.000000	6.989073   
1863.000000	7.027459   
1862.000000	7.047033   
1861.000000	7.029724   
1860.000000	6.990218   
1859.000000	6.979203   
1858.000000	7.010841   
1857.000000	7.035994   
1856.000000	7.022905   
1855.000000	7.003974   
1854.000000	7.006955   
1853.000000	7.009959   
1852.000000	7.000970   
1851.000000	7.010793   
1850.000000	7.054615   
1849.000000	7.107043   
1848.000000	7.152652   
1847.000000	7.200932   
1846.000000	7.243537   
1845.000000	7.252550   
1844.000000	7.227730   
1843.000000	7.199501   
1842.000000	7.184386   
1841.000000	7.177662   
1840.000000	7.180547   
1839.000000	7.195019   
1838.000000	7.205057   
1837.000000	7.201409   
1836.000000	7.201719   
1835.000000	7.211756   
1834.000000	7.206368   
1833.000000	7.185244   
1832.000000	7.189202   
1831.000000	7.219958   
1830.000000	7.217931   
1829.000000	7.168102   
1828.000000	7.138204   
1827.000000	7.165408   
1826.000000	7.194471   
1825.000000	7.174253   
1824.000000	7.135105   
1823.000000	7.128405   
1822.000000	7.156634   
1821.000000	7.196736   
1820.000000	7.240557   
1819.000000	7.287478   
1818.000000	7.324767   
1817.000000	7.334160   
1816.000000	7.309317   
1815.000000	7.267141   
1814.000000	7.243275   
1813.000000	7.263374   
1812.000000	7.308840   
1811.000000	7.329082   
1810.000000	7.299685   
1809.000000	7.249665   
1808.000000	7.219529   
1807.000000	7.214736   
1806.000000	7.220792   
1805.000000	7.238578   
1804.000000	7.278180   
1803.000000	7.328486   
1802.000000	7.358479   
1801.000000	7.354283   
1800.000000	7.342410   
1799.000000	7.358169   
1798.000000	7.394123   
1797.000000	7.407665   
1796.000000	7.381343   
1795.000000	7.339763   
1794.000000	7.303404   
1793.000000	7.271027   
1792.000000	7.252740   
1791.000000	7.272243   
1790.000000	7.327270   
1789.000000	7.390022   
1788.000000	7.446479   
1787.000000	7.495927   
1786.000000	7.524800   
1785.000000	7.525467   
1784.000000	7.524061   
1783.000000	7.546210   
1782.000000	7.582426   
1781.000000	7.626008   
1780.000000	7.700514   
1779.000000	7.800745   
1778.000000	7.865929   
1777.000000	7.863330   
1776.000000	7.838058   
1775.000000	7.828545   
1774.000000	7.817506   
1773.000000	7.804298   
1772.000000	7.831549   
1771.000000	7.897067   
1770.000000	7.938694   
1769.000000	7.940626   
1768.000000	7.959723   
1767.000000	8.021521   
1766.000000	8.081722   
1765.000000	8.111643   
1764.000000	8.144330   
1763.000000	8.217072   
1762.000000	8.325099   
1761.000000	8.438229   
1760.000000	8.524703   
1759.000000	8.566427   
1758.000000	8.587217   
1757.000000	8.644628   
1756.000000	8.760094   
1755.000000	8.881545   
1754.000000	8.945059   
1753.000000	8.948206   
1752.000000	8.936810   
1751.000000	8.944606   
1750.000000	8.974504   
1749.000000	9.015297   
1748.000000	9.054255   
1747.000000	9.074950   
1746.000000	9.061241   
1745.000000	9.016084   
1744.000000	8.974313   
1743.000000	8.973121   
1742.000000	9.009766   
1741.000000	9.053969   
1740.000000	9.097480   
1739.000000	9.143805   
1738.000000	9.158825   
1737.000000	9.101200   
1736.000000	9.000802   
1735.000000	8.934593   
1734.000000	8.927845   
1733.000000	8.945274   
1732.000000	8.961081   
1731.000000	8.969473   
1730.000000	8.950591   
1729.000000	8.900451   
1728.000000	8.863639   
1727.000000	8.870410   
1726.000000	8.887600   
1725.000000	8.885097   
1724.000000	8.888745   
1723.000000	8.909344   
1722.000000	8.899879   
1721.000000	8.843612   
1720.000000	8.796167   
1719.000000	8.785009   
1718.000000	8.768701   
1717.000000	8.737921   
1716.000000	8.747673   
1715.000000	8.808040   
1714.000000	8.861160   
1713.000000	8.890628   
1712.000000	8.937287   
1711.000000	8.999109   
1710.000000	9.026765   
1709.000000	9.018802   
1708.000000	9.019351   
1707.000000	9.030461   
1706.000000	9.022307   
1705.000000	9.016633   
1704.000000	9.075379   
1703.000000	9.208893   
1702.000000	9.348392   
1701.000000	9.418797   
1700.000000	9.417724   
1699.000000	9.408211   
1698.000000	9.435462   
1697.000000	9.479308   
1696.000000	9.503889   
1695.000000	9.512329   
1694.000000	9.519767   
1693.000000	9.524393   
1692.000000	9.538984   
1691.000000	9.590125   
1690.000000	9.655833   
1689.000000	9.672927   
1688.000000	9.631800   
1687.000000	9.594583   
1686.000000	9.604001   
1685.000000	9.640431   
1684.000000	9.678292   
1683.000000	9.721565   
1682.000000	9.773755   
1681.000000	9.822392   
1680.000000	9.862089   
1679.000000	9.899258   
1678.000000	9.930849   
1677.000000	9.946131   
1676.000000	9.945273   
1675.000000	9.937429   
1674.000000	9.929323   
1673.000000	9.934711   
1672.000000	9.970164   
1671.000000	10.017943  
1670.000000	10.028719  
1669.000000	9.987139   
1668.000000	9.930992   
1667.000000	9.879684   
1666.000000	9.807586   
1665.000000	9.720921   
1664.000000	9.671592   
1663.000000	9.659075   
1662.000000	9.622383   
1661.000000	9.562969   
1660.000000	9.555435   
1659.000000	9.613704   
1658.000000	9.671497   
1657.000000	9.702801   
1656.000000	9.729337   
1655.000000	9.722495   
1654.000000	9.644508   
1653.000000	9.561300   
1652.000000	9.565377   
1651.000000	9.622359   
1650.000000	9.630012   
1649.000000	9.587764   
1648.000000	9.578609   
1647.000000	9.627842   
1646.000000	9.683990   
1645.000000	9.712934   
1644.000000	9.734869   
1643.000000	9.779238   
1642.000000	9.839344   
1641.000000	9.881424   
1640.000000	9.890246   
1639.000000	9.881782   
1638.000000	9.865570   
1637.000000	9.841203   
1636.000000	9.842729   
1635.000000	9.914851   
1634.000000	10.023450  
1633.000000	10.081720  
1632.000000	10.081243  
1631.000000	10.092639  
1630.000000	10.133171  
1629.000000	10.151624  
1628.000000	10.140967  
1627.000000	10.143852  
1626.000000	10.159134  
1625.000000	10.161995  
1624.000000	10.185623  
1623.000000	10.267162  
1622.000000	10.355186  
1621.000000	10.382890  
1620.000000	10.384726  
1619.000000	10.436677  
1618.000000	10.532426  
1617.000000	10.611987  
1616.000000	10.657405  
1615.000000	10.690498  
1614.000000	10.722279  
1613.000000	10.763716  
1612.000000	10.825467  
1611.000000	10.874748  
1610.000000	10.866236  
1609.000000	10.837507  
1608.000000	10.876584  
1607.000000	10.977458  
1606.000000	11.037635  
1605.000000	11.013317  
1604.000000	10.960221  
1603.000000	10.911226  
1602.000000	10.835433  
1601.000000	10.729479  
1600.000000	10.641551  
1599.000000	10.596013  
1598.000000	10.582280  
1597.000000	10.601758  
1596.000000	10.651326  
1595.000000	10.682773  
1594.000000	10.651493  
1593.000000	10.583043  
1592.000000	10.538768  
1591.000000	10.533356  
1590.000000	10.526680  
1589.000000	10.485243  
1588.000000	10.427546  
1587.000000	10.398721  
1586.000000	10.407543  
1585.000000	10.405945  
1584.000000	10.342335  
1583.000000	10.224580  
1582.000000	10.111856  
1581.000000	10.061502  
1580.000000	10.092282  
1579.000000	10.166573  
1578.000000	10.204672  
1577.000000	10.162615  
1576.000000	10.091328  
1575.000000	10.056400  
1574.000000	10.030102  
1573.000000	9.956240   
1572.000000	9.877181   
1571.000000	9.864974   
1570.000000	9.876775   
1569.000000	9.823441   
1568.000000	9.728670   
1567.000000	9.674215   
1566.000000	9.653544   
1565.000000	9.620618   
1564.000000	9.605360   
1563.000000	9.646248   
1562.000000	9.694528   
1561.000000	9.695506   
1560.000000	9.673523   
1559.000000	9.651541   
1558.000000	9.597969   
1557.000000	9.519696   
1556.000000	9.489893   
1555.000000	9.523725   
1554.000000	9.543776   
1553.000000	9.511923   
1552.000000	9.482812   
1551.000000	9.496283   
1550.000000	9.524178   
1549.000000	9.545946   
1548.000000	9.582304   
1547.000000	9.637951   
1546.000000	9.685373   
1545.000000	9.709405   
1544.000000	9.712839   
1543.000000	9.687137   
1542.000000	9.629201   
1541.000000	9.574031   
1540.000000	9.564852   
1539.000000	9.601497   
1538.000000	9.645891   
1537.000000	9.668922   
1536.000000	9.675788   
1535.000000	9.691929   
1534.000000	9.734940   
1533.000000	9.794759   
1532.000000	9.839463   
1531.000000	9.841418   
1530.000000	9.799027   
1529.000000	9.743905   
1528.000000	9.725689   
1527.000000	9.764266   
1526.000000	9.813833   
1525.000000	9.817218   
1524.000000	9.789872   
1523.000000	9.789371   
1522.000000	9.812402   
1521.000000	9.810113   
1520.000000	9.792757   
1519.000000	9.811806   
1518.000000	9.853982   
1517.000000	9.870529   
1516.000000	9.883499   
1515.000000	9.940147   
1514.000000	10.007405  
1513.000000	10.035586  
1512.000000	10.059285  
1511.000000	10.112833  
1510.000000	10.139131  
1509.000000	10.107016  
1508.000000	10.104870  
1507.000000	10.192465  
1506.000000	10.286998  
1505.000000	10.307788  
1504.000000	10.300374  
1503.000000	10.321497  
1502.000000	10.345005  
1501.000000	10.356497  
1500.000000	10.392069  
1499.000000	10.426473  
1498.000000	10.375380  
1497.000000	10.251331  
1496.000000	10.181856  
1495.000000	10.239362  
1494.000000	10.360956  
1493.000000	10.454344  
1492.000000	10.494160  
1491.000000	10.502576  
1490.000000	10.505938  
1489.000000	10.523605  
1488.000000	10.558843  
1487.000000	10.599160  
1486.000000	10.635876  
1485.000000	10.676741  
1484.000000	10.728907  
1483.000000	10.788679  
1482.000000	10.849571  
1481.000000	10.915565  
1480.000000	10.996389  
1479.000000	11.090707  
1478.000000	11.168003  
1477.000000	11.203289  
1476.000000	11.232852  
1475.000000	11.320972  
1474.000000	11.458277  
1473.000000	11.574673  
1472.000000	11.659979  
1471.000000	11.769604  
1470.000000	11.902904  
1469.000000	12.004017  
1468.000000	12.089014  
1467.000000	12.229371  
1466.000000	12.404322  
1465.000000	12.519979  
1464.000000	12.570905  
1463.000000	12.642765  
1462.000000	12.768030  
1461.000000	12.908983  
1460.000000	13.046908  
1459.000000	13.166975  
1458.000000	13.215899  
1457.000000	13.190722  
1456.000000	13.193058  
1455.000000	13.290023  
1454.000000	13.406419  
1453.000000	13.450407  
1452.000000	13.442492  
1451.000000	13.434624  
1450.000000	13.418912  
1449.000000	13.400959  
1448.000000	13.439846  
1447.000000	13.548183  
1446.000000	13.659667  
1445.000000	13.741445  
1444.000000	13.831806  
1443.000000	13.936758  
1442.000000	13.997459  
1441.000000	13.990879  
1440.000000	13.978862  
1439.000000	14.030218  
1438.000000	14.144325  
1437.000000	14.269709  
1436.000000	14.360785  
1435.000000	14.414072  
1434.000000	14.471006  
1433.000000	14.579153  
1432.000000	14.732718  
1431.000000	14.879012  
1430.000000	14.991664  
1429.000000	15.101361  
1428.000000	15.234541  
1427.000000	15.367674  
1426.000000	15.473580  
1425.000000	15.581822  
1424.000000	15.750741  
1423.000000	15.980815  
1422.000000	16.181993  
1421.000000	16.273689  
1420.000000	16.303753  
1419.000000	16.395115  
1418.000000	16.573691  
1417.000000	16.750502  
1416.000000	16.881132  
1415.000000	17.008471  
1414.000000	17.137956  
1413.000000	17.228507  
1412.000000	17.311978  
1411.000000	17.460942  
1410.000000	17.644071  
1409.000000	17.773628  
1408.000000	17.858982  
1407.000000	17.959094  
1406.000000	18.039345  
1405.000000	18.049860  
1404.000000	18.058013  
1403.000000	18.149471  
1402.000000	18.271422  
1401.000000	18.316483  
1400.000000	18.271541  
1399.000000	18.185520  
1398.000000	18.076419  
1397.000000	17.969274  
1396.000000	17.920351  
1395.000000	17.928695  
1394.000000	17.905735  
1393.000000	17.794013  
1392.000000	17.637252  
1391.000000	17.503857  
1390.000000	17.404174  
1389.000000	17.313528  
1388.000000	17.221879  
1387.000000	17.136597  
1386.000000	17.068028  
1385.000000	17.025852  
1384.000000	17.012214  
1383.000000	17.013978  
1382.000000	17.009782  
1381.000000	16.984987  
1380.000000	16.933107  
1379.000000	16.858720  
1378.000000	16.789221  
1377.000000	16.761565  
1376.000000	16.770815  
1375.000000	16.767001  
1374.000000	16.718816  
1373.000000	16.660189  
1372.000000	16.639184  
1371.000000	16.652703  
1370.000000	16.653609  
1369.000000	16.610527  
1368.000000	16.533350  
1367.000000	16.450548  
1366.000000	16.377878  
1365.000000	16.333341  
1364.000000	16.364765  
1363.000000	16.505980  
1362.000000	16.703200  
1361.000000	16.855549  
1360.000000	16.933774  
1359.000000	16.981172  
1358.000000	17.010569  
1357.000000	17.005515  
1356.000000	17.006492  
1355.000000	17.070627  
1354.000000	17.170047  
1353.000000	17.244434  
1352.000000	17.316508  
1351.000000	17.434263  
1350.000000	17.562580  
1349.000000	17.649412  
1348.000000	17.736458  
1347.000000	17.885780  
1346.000000	18.071389  
1345.000000	18.240070  
1344.000000	18.400168  
1343.000000	18.570446  
1342.000000	18.732261  
1341.000000	18.898320  
1340.000000	19.117236  
1339.000000	19.354677  
1338.000000	19.501137  
1337.000000	19.539237  
1336.000000	19.569396  
1335.000000	19.641447  
1334.000000	19.711089  
1333.000000	19.773459  
1332.000000	19.881463  
1331.000000	20.021963  
1330.000000	20.122551  
1329.000000	20.181322  
1328.000000	20.260405  
1327.000000	20.360541  
1326.000000	20.430970  
1325.000000	20.470309  
1324.000000	20.517396  
1323.000000	20.563364  
1322.000000	20.559954  
1321.000000	20.486569  
1320.000000	20.366358  
1319.000000	20.231509  
1318.000000	20.108270  
1317.000000	20.017194  
1316.000000	19.972658  
1315.000000	19.955682  
1314.000000	19.899892  
1313.000000	19.752240  
1312.000000	19.566392  
1311.000000	19.454264  
1310.000000	19.435238  
1309.000000	19.424319  
1308.000000	19.384694  
1307.000000	19.356870  
1306.000000	19.331526  
1305.000000	19.240522  
1304.000000	19.091629  
1303.000000	18.965816  
1302.000000	18.880629  
1301.000000	18.791818  
1300.000000	18.699193  
1299.000000	18.607783  
1298.000000	18.441176  
1297.000000	18.148589  
1296.000000	17.821931  
1295.000000	17.561602  
1294.000000	17.317748  
1293.000000	17.004394  
1292.000000	16.659331  
1291.000000	16.358757  
1290.000000	16.088676  
1289.000000	15.824079  
1288.000000	15.607166  
1287.000000	15.442752  
1286.000000	15.257477  
1285.000000	15.034747  
1284.000000	14.848160  
1283.000000	14.706015  
1282.000000	14.530634  
1281.000000	14.326453  
1280.000000	14.198160  
1279.000000	14.170885  
1278.000000	14.153718  
1277.000000	14.100170  
1276.000000	14.064955  
1275.000000	14.094233  
1274.000000	14.177608  
1273.000000	14.305019  
1272.000000	14.458703  
1271.000000	14.581108  
1270.000000	14.630651  
1269.000000	14.649152  
1268.000000	14.702224  
1267.000000	14.793348  
1266.000000	14.874625  
1265.000000	14.929270  
1264.000000	14.995670  
1263.000000	15.113878  
1262.000000	15.256786  
1261.000000	15.363931  
1260.000000	15.446352  
1259.000000	15.574526  
1258.000000	15.740060  
1257.000000	15.845489  
1256.000000	15.866732  
1255.000000	15.882349  
1254.000000	15.917181  
1253.000000	15.926933  
1252.000000	15.950798  
1251.000000	16.078186  
1250.000000	16.256165  
1249.000000	16.339612  
1248.000000	16.320729  
1247.000000	16.303348  
1246.000000	16.292381  
1245.000000	16.229104  
1244.000000	16.163110  
1243.000000	16.179227  
1242.000000	16.226482  
1241.000000	16.218018  
1240.000000	16.187405  
1239.000000	16.190600  
1238.000000	16.163659  
1237.000000	16.037082  
1236.000000	15.866065  
1235.000000	15.727424  
1234.000000	15.596199  
1233.000000	15.434670  
1232.000000	15.283370  
1231.000000	15.188884  
1230.000000	15.122938  
1229.000000	15.035033  
1228.000000	14.902877  
1227.000000	14.711380  
1226.000000	14.461874  
1225.000000	14.213418  
1224.000000	14.034438  
1223.000000	13.912820  
1222.000000	13.782763  
1221.000000	13.626956  
1220.000000	13.476276  
1219.000000	13.332247  
1218.000000	13.170456  
1217.000000	13.006687  
1216.000000	12.883734  
1215.000000	12.809538  
1214.000000	12.757015  
1213.000000	12.714219  
1212.000000	12.690973  
1211.000000	12.690901  
1210.000000	12.693357  
1209.000000	12.672519  
1208.000000	12.621331  
1207.000000	12.554955  
1206.000000	12.478113  
1205.000000	12.390995  
1204.000000	12.330842  
1203.000000	12.342143  
1202.000000	12.385940  
1201.000000	12.382936  
1200.000000	12.355232  
1199.000000	12.389564  
1198.000000	12.463116  
1197.000000	12.478971  
1196.000000	12.457203  
1195.000000	12.485885  
1194.000000	12.519979  
1193.000000	12.461686  
1192.000000	12.382245  
1191.000000	12.412571  
1190.000000	12.492656  
1189.000000	12.473320  
1188.000000	12.377595  
1187.000000	12.330007  
1186.000000	12.337040  
1185.000000	12.332057  
1184.000000	12.336540  
1183.000000	12.403821  
1182.000000	12.499332  
1181.000000	12.556052  
1180.000000	12.576341  
1179.000000	12.589812  
1178.000000	12.595605  
1177.000000	12.593150  
1176.000000	12.606287  
1175.000000	12.642121  
1174.000000	12.694835  
1173.000000	12.793207  
1172.000000	12.972426  
1171.000000	13.193058  
1170.000000	13.374185  
1169.000000	13.508939  
1168.000000	13.666081  
1167.000000	13.879990  
1166.000000	14.120984  
1165.000000	14.358639  
1164.000000	14.570951  
1163.000000	14.730596  
1162.000000	14.859914  
1161.000000	15.056490  
1160.000000	15.378522  
1159.000000	15.747404  
1158.000000	16.034007  
1157.000000	16.208696  
1156.000000	16.358709  
1155.000000	16.559720  
1154.000000	16.776752  
1153.000000	16.924548  
1152.000000	17.019343  
1151.000000	17.176175  
1150.000000	17.440795  
1149.000000	17.723441  
1148.000000	17.945027  
1147.000000	18.107628  
1146.000000	18.194031  
1145.000000	18.153333  
1144.000000	18.029904  
1143.000000	17.942571  
1142.000000	17.918467  
1141.000000	17.897939  
1140.000000	17.881083  
1139.000000	17.890620  
1138.000000	17.840743  
1137.000000	17.646026  
1136.000000	17.397141  
1135.000000	17.239522  
1134.000000	17.151927  
1133.000000	17.023563  
1132.000000	16.853785  
1131.000000	16.707324  
1130.000000	16.578674  
1129.000000	16.454601  
1128.000000	16.401720  
1127.000000	16.450071  
1126.000000	16.519689  
1125.000000	16.555309  
1124.000000	16.603350  
1123.000000	16.678857  
1122.000000	16.729187  
1121.000000	16.780328  
1120.000000	16.933941  
1119.000000	17.173218  
1118.000000	17.370390  
1117.000000	17.508769  
1116.000000	17.707681  
1115.000000	18.003296  
1114.000000	18.284225  
1113.000000	18.461966  
1112.000000	18.561530  
1111.000000	18.634867  
1110.000000	18.707370  
1109.000000	18.803286  
1108.000000	18.944716  
1107.000000	19.116926  
1106.000000	19.273376  
1105.000000	19.379043  
1104.000000	19.446587  
1103.000000	19.510602  
1102.000000	19.559288  
1101.000000	19.533205  
1100.000000	19.421148  
1099.000000	19.286727  
1098.000000	19.157004  
1097.000000	18.996238  
1096.000000	18.834328  
1095.000000	18.784689  
1094.000000	18.872141  
1093.000000	18.986415  
1092.000000	19.056987  
1091.000000	19.122481  
1090.000000	19.199562  
1089.000000	19.264936  
1088.000000	19.374036  
1087.000000	19.607782  
1086.000000	19.909572  
1085.000000	20.175194  
1084.000000	20.436620  
1083.000000	20.741772  
1082.000000	20.960640  
1081.000000	20.971465  
1080.000000	20.904421  
1079.000000	20.941734  
1078.000000	21.017217  
1077.000000	20.967197  
1076.000000	20.806860  
1075.000000	20.635390  
1074.000000	20.419526  
1073.000000	20.079112  
1072.000000	19.648718  
1071.000000	19.204068  
1070.000000	18.761062  
1069.000000	18.345761  
1068.000000	18.024945  
1067.000000	17.801332  
1066.000000	17.599940  
1065.000000	17.394375  
1064.000000	17.231273  
1063.000000	17.127013  
1062.000000	17.048740  
1061.000000	17.002367  
1060.000000	17.045831  
1059.000000	17.194914  
1058.000000	17.378926  
1057.000000	17.521166  
1056.000000	17.632818  
1055.000000	17.791271  
1054.000000	18.015742  
1053.000000	18.220472  
1052.000000	18.328475  
1051.000000	18.387746  
1050.000000	18.499660  
1049.000000	18.673133  
1048.000000	18.820428  
1047.000000	18.872475  
1046.000000	18.830132  
1045.000000	18.727850  
1044.000000	18.597626  
1043.000000	18.442201  
1042.000000	18.218541  
1041.000000	17.906427  
1040.000000	17.595195  
1039.000000	17.395234  
1038.000000	17.277216  
1037.000000	17.136859  
1036.000000	16.998600  
1035.000000	16.965627  
1034.000000	16.993570  
1033.000000	16.935586  
1032.000000	16.803979  
1031.000000	16.755294  
1030.000000	16.820836  
1029.000000	16.871356  
1028.000000	16.829776  
1027.000000	16.719698  
1026.000000	16.560888  
1025.000000	16.388726  
1024.000000	16.295409  
1023.000000	16.286659  
1022.000000	16.230416  
1021.000000	16.077280  
1020.000000	15.964198  
1019.000000	15.962576  
1018.000000	15.937829  
1017.000000	15.798163  
1016.000000	15.656447  
1015.000000	15.607976  
1014.000000	15.574002  
1013.000000	15.486454  
1012.000000	15.416669  
1011.000000	15.417170  
1010.000000	15.416598  
1009.000000	15.347337  
1008.000000	15.243387  
1007.000000	15.169811  
1006.000000	15.152406  
1005.000000	15.185499  
1004.000000	15.237784  
1003.000000	15.258169  
1002.000000	15.223646  
1001.000000	15.179085  
1000.000000	15.207719  
999.000000	 15.353441  
998.000000	 15.557241  
997.000000	 15.699744  
996.000000	 15.734171  
995.000000	 15.722012  
994.000000	 15.702462  
993.000000	 15.637373  
992.000000	 15.553736  
991.000000	 15.579795  
990.000000	 15.738391  
989.000000	 15.878963  
988.000000	 15.921664  
987.000000	 15.968513  
986.000000	 16.079115  
985.000000	 16.148543  
984.000000	 16.100597  
983.000000	 15.994048  
982.000000	 15.876579  
981.000000	 15.737104  
980.000000	 15.618634  
979.000000	 15.576863  
978.000000	 15.541625  
977.000000	 15.417098  
976.000000	 15.277624  
975.000000	 15.262365  
974.000000	 15.340876  
973.000000	 15.382742  
972.000000	 15.384483  
971.000000	 15.439581  
970.000000	 15.545511  
969.000000	 15.601849  
968.000000	 15.557432  
967.000000	 15.444803  
966.000000	 15.319538  
965.000000	 15.241909  
964.000000	 15.259623  
963.000000	 15.347552  
962.000000	 15.428805  
961.000000	 15.483617  
960.000000	 15.553879  
959.000000	 15.631246  
958.000000	 15.658998  
957.000000	 15.659117  
956.000000	 15.713024  
955.000000	 15.800595  
954.000000	 15.809392  
953.000000	 15.712451  
952.000000	 15.592837  
951.000000	 15.498614  
950.000000	 15.415382  
949.000000	 15.366578  
948.000000	 15.392565  
947.000000	 15.447402  
946.000000	 15.436148  
945.000000	 15.350842  
944.000000	 15.291166  
943.000000	 15.341138  
942.000000	 15.464472  
941.000000	 15.546178  
940.000000	 15.530061  
939.000000	 15.480160  
938.000000	 15.478420  
937.000000	 15.528059  
936.000000	 15.608048  
935.000000	 15.731120  
934.000000	 15.881609  
933.000000	 16.001677  
932.000000	 16.090798  
931.000000	 16.199779  
930.000000	 16.300106  
929.000000	 16.325020  
928.000000	 16.344070  
927.000000	 16.485261  
926.000000	 16.689491  
925.000000	 16.773605  
924.000000	 16.721415  
923.000000	 16.669893  
922.000000	 16.650056  
921.000000	 16.600632  
920.000000	 16.571521  
919.000000	 16.640853  
918.000000	 16.723728  
917.000000	 16.715645  
916.000000	 16.698241  
915.000000	 16.770672  
914.000000	 16.847729  
913.000000	 16.838622  
912.000000	 16.831803  
911.000000	 16.900849  
910.000000	 16.944670  
909.000000	 16.894531  
908.000000	 16.870641  
907.000000	 16.979432  
906.000000	 17.154455  
905.000000	 17.305684  
904.000000	 17.453694  
903.000000	 17.629146  
902.000000	 17.787337  
901.000000	 17.888712  
900.000000	 17.971038  
899.000000	 18.098235  
898.000000	 18.281006  
897.000000	 18.472909  
896.000000	 18.638563  
895.000000	 18.800258  
894.000000	 18.981742  
893.000000	 19.139814  
892.000000	 19.218564  
891.000000	 19.239234  
890.000000	 19.255852  
889.000000	 19.271135  
888.000000	 19.281506  
887.000000	 19.329905  
886.000000	 19.422388  
885.000000	 19.481277  
884.000000	 19.470477  
883.000000	 19.475650  
882.000000	 19.567346  
881.000000	 19.695663  
880.000000	 19.789433  
879.000000	 19.855499  
878.000000	 19.910931  
877.000000	 19.944262  
876.000000	 19.982719  
875.000000	 20.084619  
874.000000	 20.238137  
873.000000	 20.393633  
872.000000	 20.591521  
871.000000	 20.908951  
870.000000	 21.300816  
869.000000	 21.658563  
868.000000	 22.003722  
867.000000	 22.450852  
866.000000	 23.018860  
865.000000	 23.689675  
864.000000	 24.531698  
863.000000	 25.641870  
862.000000	 26.988387  
861.000000	 28.573369  
860.000000	 30.494260  
859.000000	 32.766270  
858.000000	 35.135746  
857.000000	 37.328982  
856.000000	 39.238953  
855.000000	 40.785717  
854.000000	 41.728997  
853.000000	 41.813778  
852.000000	 40.978670  
851.000000	 39.335799  
850.000000	 37.092161  
849.000000	 34.525227  
848.000000	 31.931257  
847.000000	 29.510641  
846.000000	 27.383971  
845.000000	 25.664615  
844.000000	 24.426388  
843.000000	 23.600006  
842.000000	 23.052763  
841.000000	 22.749090  
840.000000	 22.778964  
839.000000	 23.197484  
838.000000	 23.921179  
837.000000	 24.763083  
836.000000	 25.519728  
835.000000	 26.056051  
834.000000	 26.291203  
833.000000	 26.222324  
832.000000	 25.887322  
831.000000	 25.394201  
830.000000	 24.834108  
829.000000	 24.290990  
828.000000	 23.844695  
827.000000	 23.560428  
826.000000	 23.380279  
825.000000	 23.177647  
824.000000	 22.942233  
823.000000	 22.795319  
822.000000	 22.784471  
821.000000	 22.823762  
820.000000	 22.865104  
819.000000	 22.940278  
818.000000	 23.031401  
817.000000	 23.095035  
816.000000	 23.212122  
815.000000	 23.476314  
814.000000	 23.781514  
813.000000	 23.948383  
812.000000	 23.996639  
811.000000	 24.037504  
810.000000	 24.025368  
809.000000	 23.880481  
808.000000	 23.706603  
807.000000	 23.619341  
806.000000	 23.521780  
805.000000	 23.286795  
804.000000	 22.993040  
803.000000	 22.769665  
802.000000	 22.591280  
801.000000	 22.408819  
800.000000	 22.284054  
799.000000	 22.246766  
798.000000	 22.196698  
797.000000	 22.058534  
796.000000	 21.868419  
795.000000	 21.660351  
794.000000	 21.435499  
793.000000	 21.273517  
792.000000	 21.299505  
791.000000	 21.503472  
790.000000	 21.719813  
789.000000	 21.815180  
788.000000	 21.807527  
787.000000	 21.793770  
786.000000	 21.825098  
785.000000	 21.875953  
784.000000	 21.899819  
783.000000	 21.887826  
782.000000	 21.852254  
781.000000	 21.790957  
780.000000	 21.712160  
779.000000	 21.656012  
778.000000	 21.633076  
777.000000	 21.604800  
776.000000	 21.579432  
775.000000	 21.633124  
774.000000	 21.764230  
773.000000	 21.847295  
772.000000	 21.814417  
771.000000	 21.742486  
770.000000	 21.699953  
769.000000	 21.655344  
768.000000	 21.593594  
767.000000	 21.557283  
766.000000	 21.528863  
765.000000	 21.443271  
764.000000	 21.338248  
763.000000	 21.318769  
762.000000	 21.374297  
761.000000	 21.412563  
760.000000	 21.435499  
759.000000	 21.486544  
758.000000	 21.493554  
757.000000	 21.390581  
756.000000	 21.297502  
755.000000	 21.350932  
754.000000	 21.475577  
753.000000	 21.534919  
752.000000	 21.561765  
751.000000	 21.627092  
750.000000	 21.664023  
749.000000	 21.617531  
748.000000	 21.582293  
747.000000	 21.609163  
746.000000	 21.582818  
745.000000	 21.437382  
744.000000	 21.290040  
743.000000	 21.242547  
742.000000	 21.256232  
741.000000	 21.299505  
740.000000	 21.408700  
739.000000	 21.551275  
738.000000	 21.623563  
737.000000	 21.620607  
736.000000	 21.639370  
735.000000	 21.703934  
734.000000	 21.741747  
733.000000	 21.732711  
732.000000	 21.738409  
731.000000	 21.793007  
730.000000	 21.866869  
729.000000	 21.924710  
728.000000	 21.948385  
727.000000	 21.934843  
726.000000	 21.911954  
725.000000	 21.940398  
724.000000	 22.071528  
723.000000	 22.286605  
722.000000	 22.481894  
721.000000	 22.570157  
720.000000	 22.621536  
719.000000	 22.778558  
718.000000	 23.003602  
717.000000	 23.109960  
716.000000	 23.086404  
715.000000	 23.132634  
714.000000	 23.304080  
713.000000	 23.421716  
712.000000	 23.404383  
711.000000	 23.378300  
710.000000	 23.401474  
709.000000	 23.379731  
708.000000	 23.302245  
707.000000	 23.278784  
706.000000	 23.334169  
705.000000	 23.424386  
704.000000	 23.594188  
703.000000	 23.856687  
702.000000	 24.042367  
701.000000	 24.031496  
700.000000	 23.977398  
699.000000	 24.040436  
698.000000	 24.128413  
697.000000	 24.158620  
696.000000	 24.305844  
695.000000	 24.711203  
694.000000	 25.199937  
693.000000	 25.554132  
692.000000	 25.808382  
691.000000	 26.073765  
690.000000	 26.321864  
689.000000	 26.512336  
688.000000	 26.703190  
687.000000	 26.916408  
686.000000	 27.080726  
685.000000	 27.173686  
684.000000	 27.255368  
683.000000	 27.334952  
682.000000	 27.334213  
681.000000	 27.209687  
680.000000	 27.027034  
679.000000	 26.886892  
678.000000	 26.823377  
677.000000	 26.785707  
676.000000	 26.720523  
675.000000	 26.634502  
674.000000	 26.558113  
673.000000	 26.481223  
672.000000	 26.391530  
671.000000	 26.319456  
670.000000	 26.281261  
669.000000	 26.229333  
668.000000	 26.137948  
667.000000	 26.052117  
666.000000	 25.980281  
665.000000	 25.860404  
664.000000	 25.705981  
663.000000	 25.630927  
662.000000	 25.650453  
661.000000	 25.649523  
660.000000	 25.600147  
659.000000	 25.586056  
658.000000	 25.582623  
657.000000	 25.486683  
656.000000	 25.371527  
655.000000	 25.406336  
654.000000	 25.538802  
653.000000	 25.585579  
652.000000	 25.583243  
651.000000	 25.691604  
650.000000	 25.842785  
649.000000	 25.859546  
648.000000	 25.804924  
647.000000	 25.855827  
646.000000	 25.976037  
645.000000	 26.037192  
644.000000	 26.083707  
643.000000	 26.196551  
642.000000	 26.288986  
641.000000	 26.284694  
640.000000	 26.288104  
639.000000	 26.381635  
638.000000	 26.460838  
637.000000	 26.431322  
636.000000	 26.363563  
635.000000	 26.337003  
634.000000	 26.308131  
633.000000	 26.222872  
632.000000	 26.111817  
631.000000	 26.012659  
630.000000	 25.904178  
629.000000	 25.761723  
628.000000	 25.613689  
627.000000	 25.508475  
626.000000	 25.451016  
625.000000	 25.396561  
624.000000	 25.314521  
623.000000	 25.241732  
622.000000	 25.236392  
621.000000	 25.289726  
620.000000	 25.331592  
619.000000	 25.315260  
618.000000	 25.256228  
617.000000	 25.200676  
616.000000	 25.187349  
615.000000	 25.225377  
614.000000	 25.268697  
613.000000	 25.260782  
612.000000	 25.228047  
611.000000	 25.268220  
610.000000	 25.405335  
609.000000	 25.544452  
608.000000	 25.601744  
607.000000	 25.574421  
606.000000	 25.461912  
605.000000	 25.276565  
604.000000	 25.149655  
603.000000	 25.227093  
602.000000	 25.437855  
601.000000	 25.579857  
600.000000	 25.618791  
599.000000	 25.655508  
598.000000	 25.657558  
597.000000	 25.542473  
596.000000	 25.428247  
595.000000	 25.452160  
594.000000	 25.490164  
593.000000	 25.406169  
592.000000	 25.362944  
591.000000	 25.521755  
590.000000	 25.696778  
589.000000	 25.672292  
588.000000	 25.573229  
587.000000	 25.576019  
586.000000	 25.554537  
585.000000	 25.332570  
584.000000	 25.023555  
583.000000	 24.858474  
582.000000	 24.889111  
581.000000	 25.029087  
580.000000	 25.193834  
579.000000	 25.296258  
578.000000	 25.280165  
577.000000	 25.216531  
576.000000	 25.224733  
575.000000	 25.288987  
574.000000	 25.287866  
573.000000	 25.194859  
572.000000	 25.118184  
571.000000	 25.146174  
570.000000	 25.263071  
569.000000	 25.407171  
568.000000	 25.518035  
567.000000	 25.550341  
566.000000	 25.506114  
565.000000	 25.449347  
564.000000	 25.448918  
563.000000	 25.507307  
562.000000	 25.555920  
561.000000	 25.538492  
560.000000	 25.503921  
559.000000	 25.546455  
558.000000	 25.622892  
557.000000	 25.590753  
556.000000	 25.480198  
555.000000	 25.499486  
554.000000	 25.683331  
553.000000	 25.829362  
552.000000	 25.863575  
551.000000	 25.931572  
550.000000	 26.054573  
549.000000	 26.072597  
548.000000	 25.991392  
547.000000	 26.009964  
546.000000	 26.164579  
545.000000	 26.310706  
544.000000	 26.439523  
543.000000	 26.649856  
542.000000	 26.869153  
541.000000	 26.961898  
540.000000	 27.004981  
539.000000	 27.118396  
538.000000	 27.193307  
537.000000	 27.112174  
536.000000	 27.013540  
535.000000	 27.027177  
534.000000	 27.008581  
533.000000	 26.828265  
532.000000	 26.634836  
531.000000	 26.560068  
530.000000	 26.480960  
529.000000	 26.311850  
528.000000	 26.199436  
527.000000	 26.229572  
526.000000	 26.261353  
525.000000	 26.204037  
524.000000	 26.160287  
523.000000	 26.200270  
522.000000	 26.251173  
521.000000	 26.279163  
520.000000	 26.354885  
519.000000	 26.495695  
518.000000	 26.610946  
517.000000	 26.641249  
516.000000	 26.647090  
515.000000	 26.734328  
514.000000	 26.919412  
513.000000	 27.099132  
512.000000	 27.164864  
511.000000	 27.130746  
510.000000	 27.105569  
509.000000	 27.187657  
508.000000	 27.439689  
507.000000	 27.870130  
506.000000	 28.331589  
505.000000	 28.591203  
504.000000	 28.624629  
503.000000	 28.663015  
502.000000	 28.837347  
501.000000	 29.020977  
500.000000	 29.125332  
499.000000	 29.239678  
498.000000	 29.370760  
497.000000	 29.407906  
496.000000	 29.429173  
495.000000	 29.653406  
494.000000	 30.033016  
493.000000	 30.287671  
492.000000	 30.356240  
491.000000	 30.418539  
490.000000	 30.504846  
489.000000	 30.514478  
488.000000	 30.535626  
487.000000	 30.719637  
486.000000	 30.952119  
485.000000	 31.046891  
484.000000	 31.087732  
483.000000	 31.217479  
482.000000	 31.312465  
481.000000	 31.227302  
480.000000	 31.094861  
479.000000	 31.074976  
478.000000	 31.083989  
477.000000	 31.047940  
476.000000	 31.100344  
475.000000	 31.298041  
474.000000	 31.446909  
473.000000	 31.414628  
472.000000	 31.317782  
471.000000	 31.261563  
470.000000	 31.182980  
469.000000	 31.050395  
468.000000	 30.960106  
467.000000	 30.963969  
466.000000	 30.995845  
465.000000	 31.008195  
464.000000	 31.023716  
463.000000	 31.049919  
462.000000	 31.054401  
461.000000	 31.040930  
460.000000	 31.069946  
459.000000	 31.193017  
458.000000	 31.374192  
457.000000	 31.516361  
456.000000	 31.590628  
455.000000	 31.683945  
454.000000	 31.862688  
453.000000	 32.088685  
452.000000	 32.364630  
451.000000	 32.791352  
450.000000	 33.367037  
449.000000	 33.912301  
448.000000	 34.354043  
447.000000	 34.823369  
446.000000	 35.357809  
445.000000	 35.784053  
444.000000	 36.021876  
443.000000	 36.161613  
442.000000	 36.169886  
441.000000	 35.904836  
440.000000	 35.467481  
439.000000	 35.109305  
438.000000	 34.797024  
437.000000	 34.325361  
436.000000	 33.785176  
435.000000	 33.425140  
434.000000	 33.161425  
433.000000	 32.772684  
432.000000	 32.372379  
431.000000	 32.174372  
430.000000	 32.017159  
429.000000	 31.663441  
428.000000	 31.269550  
427.000000	 31.093239  
426.000000	 31.027984  
425.000000	 30.846714  
424.000000	 30.589556  
423.000000	 30.362296  
422.000000	 30.081057  
421.000000	 29.686188  
420.000000	 29.322338  
419.000000	 29.087018  
418.000000	 28.890657  
417.000000	 28.681349  
416.000000	 28.546619  
415.000000	 28.504014  
414.000000	 28.438353  
413.000000	 28.295898  
412.000000	 28.151822  
411.000000	 28.062748  
410.000000	 27.996373  
409.000000	 27.926564  
408.000000	 27.886271  
407.000000	 27.902030  
406.000000	 27.919769  
405.000000	 27.859377  
404.000000	 27.751994  
403.000000	 27.756237  
402.000000	 27.936768  
401.000000	 28.146696  
400.000000	 28.242135  
399.000000	 28.287315  
398.000000	 28.382921  
397.000000	 28.486180  
396.000000	 28.565311  
395.000000	 28.718495  
394.000000	 28.951311  
393.000000	 29.110741  
392.000000	 29.182004  
391.000000	 29.348015  
390.000000	 29.630661  
389.000000	 29.838776  
388.000000	 29.951429  
387.000000	 30.144810  
386.000000	 30.396199  
385.000000	 30.512785  
384.000000	 30.551505  
383.000000	 30.737996  
382.000000	 31.009149  
381.000000	 31.136679  
380.000000	 31.194186  
379.000000	 31.387829  
378.000000	 31.592845  
377.000000	 31.592869  
376.000000	 31.528162  
375.000000	 31.601333  
374.000000	 31.631493  
373.000000	 31.401443  
372.000000	 31.095767  
371.000000	 30.951642  
370.000000	 30.856060  
369.000000	 30.667400  
368.000000	 30.528640  
367.000000	 30.524969  
366.000000	 30.467200  
365.000000	 30.266833  
364.000000	 30.107688  
363.000000	 30.054616  
362.000000	 29.919075  
361.000000	 29.647684  
360.000000	 29.489660  
359.000000	 29.653906  
358.000000	 30.060052  
357.000000	 30.504202  
356.000000	 30.901265  
355.000000	 31.295275  
354.000000	 31.715750  
353.000000	 32.115817  
352.000000	 32.487607  
351.000000	 32.943296  
350.000000	 33.553194  
349.000000	 34.180831  
348.000000	 34.657597  
347.000000	 35.017371  
346.000000	 35.379195  
345.000000	 35.727667  
344.000000	 36.020350  
343.000000	 36.311936  
342.000000	 36.585378  
341.000000	 36.683797  
340.000000	 36.602497  
339.000000	 36.525082  
338.000000	 36.452269  
337.000000	 36.172723  
336.000000	 35.732698  
335.000000	 35.437750  
334.000000	 35.294985  
333.000000	 34.989809  
332.000000	 34.487700  
331.000000	 34.083318  
330.000000	 33.835101  
329.000000	 33.533120  
328.000000	 33.208250  
327.000000	 33.073425  
326.000000	 33.036518  
325.000000	 32.862710  
324.000000	 32.665085  
323.000000	 32.673430  
322.000000	 32.747125  
321.000000	 32.643032  
320.000000	 32.478165  
319.000000	 32.439374  
318.000000	 32.396221  
317.000000	 32.224345  
316.000000	 32.122659  
315.000000	 32.205104  
314.000000	 32.220888  
313.000000	 32.009100  
312.000000	 31.801676  
311.000000	 31.784963  
310.000000	 31.800723  
309.000000	 31.695389  
308.000000	 31.556200  
307.000000	 31.448507  
306.000000	 31.286549  
305.000000	 31.069946  
304.000000	 30.948352  
303.000000	 30.985498  
302.000000	 31.069517  
301.000000	 31.089091  
300.000000	 31.048679  
299.000000	 30.994486  
298.000000	 30.911636  
297.000000	 30.741500  
296.000000	 30.501532  
295.000000	 30.310034  
294.000000	 30.211782  
293.000000	 30.096435  
292.000000	 29.922866  
291.000000	 29.842638  
290.000000	 29.917764  
289.000000	 29.954028  
288.000000	 29.838967  
287.000000	 29.748678  
286.000000	 29.784679  
285.000000	 29.774570  
284.000000	 29.651331  
283.000000	 29.584908  
282.000000	 29.565811  
281.000000	 29.378986  
280.000000	 29.113292  
279.000000	 29.091763  
278.000000	 29.234814  
277.000000	 29.162549  
276.000000	 28.918051  
275.000000	 28.875350  
274.000000	 28.993535  
273.000000	 28.916978  
272.000000	 28.691673  
271.000000	 28.620409  
270.000000	 28.606891  
269.000000	 28.380846  
268.000000	 28.108620  
267.000000	 28.087115  
266.000000	 28.154039  
265.000000	 28.008031  
264.000000	 27.748918  
263.000000	 27.587151  
262.000000	 27.442598  
261.000000	 27.261090  
260.000000	 27.260971  
259.000000	 27.494263  
258.000000	 27.641367  
257.000000	 27.538371  
256.000000	 27.429580  
255.000000	 27.480888  
254.000000	 27.525925  
253.000000	 27.452015  
252.000000	 27.394461  
251.000000	 27.422475  
250.000000	 27.412533  
249.000000	 27.308630  
248.000000	 27.217674  
247.000000	 27.199959  
246.000000	 27.181553  
245.000000	 27.106618  
244.000000	 27.043676  
243.000000	 27.101182  
242.000000	 27.282357  
241.000000	 27.455759  
240.000000	 27.511763  
239.000000	 27.476048  
238.000000	 27.386426  
237.000000	 27.192878  
236.000000	 26.933240  
235.000000	 26.791548  
234.000000	 26.793336  
233.000000	 26.719737  
232.000000	 26.532030  
231.000000	 26.464748  
230.000000	 26.513934  
229.000000	 26.369333  
228.000000	 26.045894  
227.000000	 25.911474  
226.000000	 25.943493  
225.000000	 25.730490  
224.000000	 25.305199  
223.000000	 25.103616  
222.000000	 25.085401  
221.000000	 24.810194  
220.000000	 24.339985  
219.000000	 24.104094  
218.000000	 24.018144  
217.000000	 23.712778  
216.000000	 23.359918  
215.000000	 23.318123  
214.000000	 23.328614  
213.000000	 23.005986  
212.000000	 22.636103  
211.000000	 22.674274  
210.000000	 22.943615  
209.000000	 23.099350  
208.000000	 23.242139  
207.000000	 23.476433  
206.000000	 23.480153  
205.000000	 23.110985  
204.000000	 22.737479  
203.000000	 22.564196  
202.000000	 22.270989  
201.000000	 21.651029  
200.000000	 20.910859  
199.000000	 20.134210  
198.000000	 19.098043  
197.000000	 17.793226  
196.000000	 16.546726  
195.000000	 15.519714  
194.000000	 14.526224  
193.000000	 13.405585  
192.000000	 12.239003  
191.000000	 11.155319  
190.000000	 10.147953  
189.000000	 9.135365   
188.000000	 8.119654   
187.000000	 7.207107   
186.000000	 6.404852   
185.000000	 5.566644   
184.000000	 4.695296   
183.000000	 4.053783   
182.000000	 3.682661   
181.000000	 3.240847   
180.000000	 2.626395   
179.000000	 2.242279   
178.000000	 2.212619   
177.000000	 2.101159   
176.000000	 1.766204   
175.000000	 1.642680   
174.000000	 1.781058   
173.000000	 1.671361   
172.000000	 1.292896   
171.000000	 1.206254   
170.000000	 1.405048   
169.000000	 1.322150   
168.000000	 1.013231   
167.000000	 1.046299   
166.000000	 1.288986   
165.000000	 1.157307   
164.000000	 0.856614   
163.000000	 1.001000   
162.000000	 1.360011   
161.000000	 1.312685   
160.000000	 1.059842   
159.000000	 1.130795   
158.000000	 1.304268   
157.000000	 1.158332   
156.000000	 0.978755   
155.000000	 1.116657   
154.000000	 1.235532   
153.000000	 1.039195   
152.000000	 0.914931   
151.000000	 1.143050   
150.000000	 1.331067   
149.000000	 1.197528   
148.000000	 1.068305   
147.000000	 1.165485   
146.000000	 1.203799   
145.000000	 1.012563   
144.000000	 0.862526   
143.000000	 0.949215   
142.000000	 1.094055   
141.000000	 1.099967   
140.000000	 1.023817   
139.000000	 1.003789   
138.000000	 1.043486   
137.000000	 1.049375   
136.000000	 1.008820   
135.000000	 1.039218   
134.000000	 1.156067   
133.000000	 1.153254   
132.000000	 0.969386   
131.000000	 0.897717   
130.000000	 1.072454   
129.000000	 1.155376   
128.000000	 0.982046   
127.000000	 0.932002   
126.000000	 1.148605   
125.000000	 1.177763   
124.000000	 0.950026   
123.000000	 1.111888   
122.000000	 1.795458   
121.000000	 2.211833   
120.000000	 2.006483   
119.000000	 1.743936   
118.000000	 1.650977   
117.000000	 1.311016   
116.000000	 0.854873   
115.000000	 0.904965   
114.000000	 1.237988   
113.000000	 1.090335   
112.000000	 0.698065   
111.000000	 0.853395   
110.000000	 1.256132   
109.000000	 1.091361   
108.000000	 0.708031   
107.000000	 0.907111   
106.000000	 1.295948   
105.000000	 1.129627   
104.000000	 0.842928   
103.000000	 1.070284   
102.000000	 1.276445   
101.000000	 0.895595   
100.000000	 0.571060   
99.000000	  0.882840   
98.000000	  1.203751   
97.000000	  0.994920   
96.000000	  0.810408   
95.000000	  1.054167   
94.000000	  1.183438   
93.000000	  0.899481   
92.000000	  0.756311   
91.000000	  1.040697   
90.000000	  1.274394   
89.000000	  1.182675   
88.000000	  1.102232   
87.000000	  1.227569   
86.000000	  1.295304   
85.000000	  1.148009   
84.000000	  1.003432   
83.000000	  1.069140   
82.000000	  1.224374   
81.000000	  1.188898   
80.000000	  0.947260   
79.000000	  0.816011   
78.000000	  0.902819   
77.000000	  0.860619   
76.000000	  0.601696   
75.000000	  0.638747   
74.000000	  1.076483   
73.000000	  1.181530   
72.000000	  0.763583   
71.000000	  0.714445   
70.000000	  1.261234   
69.000000	  1.351594   
68.000000	  0.720906   
67.000000	  0.515913   
66.000000	  0.981712   
65.000000	  0.958514   
64.000000	  0.386810   
63.000000	  0.541353   
62.000000	  1.308298   
61.000000	  1.270890   
60.000000	  0.642395   
59.000000	  0.880479   
58.000000	  1.577758   
57.000000	  1.219463   
56.000000	  0.433945   
55.000000	  0.820469   
54.000000	  1.596403   
53.000000	  1.151394   
52.000000	  0.401949   
51.000000	  0.896930   
50.000000	  1.585292   
49.000000	  1.032567   
48.000000	  0.429773   
47.000000	  1.103758   
46.000000	  1.767873   
45.000000	  1.201939   
44.000000	  0.714397   
43.000000	  1.343393   
42.000000	  1.752853   
41.000000	  1.063823   
40.000000	  0.600481   
39.000000	  1.136183   
38.000000	  1.466679   
37.000000	  0.927400   
36.000000	  0.520610   
35.000000	  0.762701   
34.000000	  0.860071   
33.000000	  0.468945   
32.000000	  0.322079   
31.000000	  0.817108   
30.000000	  1.341032   
29.000000	  1.237869   
28.000000	  0.775241   
27.000000	  0.795269   
26.000000	  1.329731   
25.000000	  1.300811   
24.000000	  0.505518   
23.000000	  0.491404   
22.000000	  1.659703   
21.000000	  1.866102   
20.000000	  0.498867   
19.000000	  0.298094   
18.000000	  1.877617   
17.000000	  2.116370   
16.000000	  -0.137305  
15.000000	  -0.021123  
14.000000	  2.647113   
13.000000	  1.716756   
12.000000	  -1.566815  
11.000000	  -0.002670  
10.000000	  3.884696   
9.000000	   1.860618   
8.000000	   -1.847386  
7.000000	   0.513219   
6.000000	   2.146482   
5.000000	   3.744649   
4.000000	   41.863846  
3.000000	   152.360677 
2.000000	   303.433132 
1.000000	   398.776125 
0.000000	   365.232658 

