PE IR       RAMAN       SPECTRUM    ASCII       PEDS        1.60        
  -1
CELLUL.ASC
97/09/09
10:24:46.00
97/09/09
10:24:46.00
default
cellulose-sample (Sigma 9004-34-6)
0.000000
256









2000,4.07    
INGAAS
RAM_DPY2
QUARTZ

0.100000
1
8.000000
MEDIUM
SINGLE
RAMAN
MAGN 0

DOUBLE

COMBINED
1
0
0


1.000000
SINGLE BEAM


1
0
TRUE
39836
1
 0
NONE
NONE
15600
21.200000
11.550000
39835
TRUE
1 0 0 0 0 0 0 0 

15798.010000
9394.690000
400.000000




#HDR
-1
-1
#GR
CM-1
INT
0.00100000000000000000
0.0
3600.000000
-1.000000
3601
8
456.679463
0.056147
#DATA
3600.000000	0.081443   
3599.000000	0.085139   
3598.000000	0.080633   
3597.000000	0.071048   
3596.000000	0.061225   
3595.000000	0.056147   
3594.000000	0.058627   
3593.000000	0.066590   
3592.000000	0.076198   
3591.000000	0.082993   
3590.000000	0.084376   
3589.000000	0.081586   
3588.000000	0.077438   
3587.000000	0.075626   
3586.000000	0.078105   
3585.000000	0.084376   
3584.000000	0.092339   
3583.000000	0.099134   
3582.000000	0.103068   
3581.000000	0.104117   
3580.000000	0.103759   
3579.000000	0.104093   
3578.000000	0.106787   
3577.000000	0.112342   
3576.000000	0.119972   
3575.000000	0.127744   
3574.000000	0.133514   
3573.000000	0.135684   
3572.000000	0.134229   
3571.000000	0.130414   
3570.000000	0.127196   
3569.000000	0.127315   
3568.000000	0.132083   
3567.000000	0.141000   
3566.000000	0.150942   
3565.000000	0.158786   
3564.000000	0.162339   
3563.000000	0.161623   
3562.000000	0.159764   
3561.000000	0.159788   
3560.000000	0.163888   
3559.000000	0.171399   
3558.000000	0.178861   
3557.000000	0.183200   
3556.000000	0.182509   
3555.000000	0.178980   
3554.000000	0.177192   
3553.000000	0.181007   
3552.000000	0.192594   
3551.000000	0.208663   
3550.000000	0.223612   
3549.000000	0.232625   
3548.000000	0.232863   
3547.000000	0.227975   
3546.000000	0.223731   
3545.000000	0.225400   
3544.000000	0.235795   
3543.000000	0.250768   
3542.000000	0.264525   
3541.000000	0.271654   
3540.000000	0.269913   
3539.000000	0.263881   
3538.000000	0.259494   
3537.000000	0.262117   
3536.000000	0.273275   
3535.000000	0.288176   
3534.000000	0.301146   
3533.000000	0.307297   
3532.000000	0.306820   
3531.000000	0.305223   
3530.000000	0.308227   
3529.000000	0.320148   
3528.000000	0.338840   
3527.000000	0.357794   
3526.000000	0.370573   
3525.000000	0.372743   
3524.000000	0.367808   
3523.000000	0.363063   
3522.000000	0.365710   
3521.000000	0.380373   
3520.000000	0.402975   
3519.000000	0.426149   
3518.000000	0.442361   
3517.000000	0.446557   
3516.000000	0.442695   
3515.000000	0.437569   
3514.000000	0.438427   
3513.000000	0.449776   
3512.000000	0.468158   
3511.000000	0.487971   
3510.000000	0.502848   
3509.000000	0.509905   
3508.000000	0.512886   
3507.000000	0.517010   
3506.000000	0.527930   
3505.000000	0.547051   
3504.000000	0.570845   
3503.000000	0.594401   
3502.000000	0.612878   
3501.000000	0.625967   
3500.000000	0.637269   
3499.000000	0.651097   
3498.000000	0.671029   
3497.000000	0.695681   
3496.000000	0.721120   
3495.000000	0.742650   
3494.000000	0.756835   
3493.000000	0.765585   
3492.000000	0.773119   
3491.000000	0.783991   
3490.000000	0.801634   
3489.000000	0.824666   
3488.000000	0.849938   
3487.000000	0.873756   
3486.000000	0.893688   
3485.000000	0.911569   
3484.000000	0.930333   
3483.000000	0.952911   
3482.000000	0.980567   
3481.000000	1.011276   
3480.000000	1.041960   
3479.000000	1.069378   
3478.000000	1.092600   
3477.000000	1.113629   
3476.000000	1.135373   
3475.000000	1.160979   
3474.000000	1.191663   
3473.000000	1.226615   
3472.000000	1.263570   
3471.000000	1.299858   
3470.000000	1.334238   
3469.000000	1.366734   
3468.000000	1.398801   
3467.000000	1.432347   
3466.000000	1.468825   
3465.000000	1.508831   
3464.000000	1.551318   
3463.000000	1.594400   
3462.000000	1.635646   
3461.000000	1.673579   
3460.000000	1.708149   
3459.000000	1.740837   
3458.000000	1.774835   
3457.000000	1.812911   
3456.000000	1.856040   
3455.000000	1.903033   
3454.000000	1.950311   
3453.000000	1.994562   
3452.000000	2.034115   
3451.000000	2.070426   
3450.000000	2.108049   
3449.000000	2.150988   
3448.000000	2.201652   
3447.000000	2.257990   
3446.000000	2.314901   
3445.000000	2.367424   
3444.000000	2.412056   
3443.000000	2.450847   
3442.000000	2.488565   
3441.000000	2.529716   
3440.000000	2.577161   
3439.000000	2.627611   
3438.000000	2.675890   
3437.000000	2.717614   
3436.000000	2.750587   
3435.000000	2.779698   
3434.000000	2.811241   
3433.000000	2.850794   
3432.000000	2.900600   
3431.000000	2.955341   
3430.000000	3.008460   
3429.000000	3.054070   
3428.000000	3.090572   
3427.000000	3.123402   
3426.000000	3.159308   
3425.000000	3.204369   
3424.000000	3.259277   
3423.000000	3.318190   
3422.000000	3.373956   
3421.000000	3.420090   
3420.000000	3.456258   
3419.000000	3.487253   
3418.000000	3.519248   
3417.000000	3.557753   
3416.000000	3.602027   
3415.000000	3.647375   
3414.000000	3.688788   
3413.000000	3.722167   
3412.000000	3.750395   
3411.000000	3.778362   
3410.000000	3.810882   
3409.000000	3.850364   
3408.000000	3.891944   
3407.000000	3.929042   
3406.000000	3.956031   
3405.000000	3.970694   
3404.000000	3.978633   
3403.000000	3.987145   
3402.000000	4.003167   
3401.000000	4.029226   
3400.000000	4.060459   
3399.000000	4.090237   
3398.000000	4.112362   
3397.000000	4.125356   
3396.000000	4.133963   
3395.000000	4.144883   
3394.000000	4.165029   
3393.000000	4.196095   
3392.000000	4.234600   
3391.000000	4.275465   
3390.000000	4.313158   
3389.000000	4.346728   
3388.000000	4.378271   
3387.000000	4.411101   
3386.000000	4.448509   
3385.000000	4.489064   
3384.000000	4.529356   
3383.000000	4.565548   
3382.000000	4.594588   
3381.000000	4.617810   
3380.000000	4.638028   
3379.000000	4.658675   
3378.000000	4.681706   
3377.000000	4.705357   
3376.000000	4.726529   
3375.000000	4.741978   
3374.000000	4.749822   
3373.000000	4.751682   
3372.000000	4.750275   
3371.000000	4.749298   
3370.000000	4.750967   
3369.000000	4.755067   
3368.000000	4.760122   
3367.000000	4.763960   
3366.000000	4.765009   
3365.000000	4.763031   
3364.000000	4.759073   
3363.000000	4.755592   
3362.000000	4.754447   
3361.000000	4.756951   
3360.000000	4.763293   
3359.000000	4.772925   
3358.000000	4.784107   
3357.000000	4.795241   
3356.000000	4.806184   
3355.000000	4.817771   
3354.000000	4.832005   
3353.000000	4.850745   
3352.000000	4.874658   
3351.000000	4.902815   
3350.000000	4.931378   
3349.000000	4.956293   
3348.000000	4.974651   
3347.000000	4.985356   
3346.000000	4.990315   
3345.000000	4.991626   
3344.000000	4.990744   
3343.000000	4.986476   
3342.000000	4.975032   
3341.000000	4.952931   
3340.000000	4.918050   
3339.000000	4.872322   
3338.000000	4.821014   
3337.000000	4.769182   
3336.000000	4.720568   
3335.000000	4.674339   
3334.000000	4.626750   
3333.000000	4.574227   
3332.000000	4.514551   
3331.000000	4.451227   
3330.000000	4.389715   
3329.000000	4.334855   
3328.000000	4.289579   
3327.000000	4.250407   
3326.000000	4.212617   
3325.000000	4.172444   
3324.000000	4.129076   
3323.000000	4.088258   
3322.000000	4.056525   
3321.000000	4.038429   
3320.000000	4.034256   
3319.000000	4.036355   
3318.000000	4.036521   
3317.000000	4.028463   
3316.000000	4.012036   
3315.000000	3.994631   
3314.000000	3.985095   
3313.000000	3.991198   
3312.000000	4.013538   
3311.000000	4.045677   
3310.000000	4.079246   
3309.000000	4.106283   
3308.000000	4.125666   
3307.000000	4.141187   
3306.000000	4.157853   
3305.000000	4.180121   
3304.000000	4.205417   
3303.000000	4.228115   
3302.000000	4.242444   
3301.000000	4.244446   
3300.000000	4.237985   
3299.000000	4.229187   
3298.000000	4.224610   
3297.000000	4.228162   
3296.000000	4.236268   
3295.000000	4.242825   
3294.000000	4.241514   
3293.000000	4.228568   
3292.000000	4.206776   
3291.000000	4.180502   
3290.000000	4.154872   
3289.000000	4.131722   
3288.000000	4.107761   
3287.000000	4.078865   
3286.000000	4.041266   
3285.000000	3.995108   
3284.000000	3.944420   
3283.000000	3.894305   
3282.000000	3.849482   
3281.000000	3.809928   
3280.000000	3.772139   
3279.000000	3.731632   
3278.000000	3.684186   
3277.000000	3.629660   
3276.000000	3.570175   
3275.000000	3.509426   
3274.000000	3.450870   
3273.000000	3.394436   
3272.000000	3.338432   
3271.000000	3.280496   
3270.000000	3.218531   
3269.000000	3.153133   
3268.000000	3.085923   
3267.000000	3.019404   
3266.000000	2.955460   
3265.000000	2.893829   
3264.000000	2.833390   
3263.000000	2.772331   
3262.000000	2.709317   
3261.000000	2.644467   
3260.000000	2.578806   
3259.000000	2.514338   
3258.000000	2.452874   
3257.000000	2.395749   
3256.000000	2.343249   
3255.000000	2.294707   
3254.000000	2.248668   
3253.000000	2.203774   
3252.000000	2.159047   
3251.000000	2.114462   
3250.000000	2.071189   
3249.000000	2.030849   
3248.000000	1.994395   
3247.000000	1.962184   
3246.000000	1.932764   
3245.000000	1.904606   
3244.000000	1.876354   
3243.000000	1.847600   
3242.000000	1.820087   
3241.000000	1.795530   
3240.000000	1.774263   
3239.000000	1.755213   
3238.000000	1.734781   
3237.000000	1.709771   
3236.000000	1.678395   
3235.000000	1.641964   
3234.000000	1.605272   
3233.000000	1.572942   
3232.000000	1.547980   
3231.000000	1.529526   
3230.000000	1.513338   
3229.000000	1.495361   
3228.000000	1.472687   
3227.000000	1.447439   
3226.000000	1.424717   
3225.000000	1.408553   
3224.000000	1.400971   
3223.000000	1.397681   
3222.000000	1.392126   
3221.000000	1.378750   
3220.000000	1.354885   
3219.000000	1.325654   
3218.000000	1.298546   
3217.000000	1.279973   
3216.000000	1.273083   
3215.000000	1.272511   
3214.000000	1.270842   
3213.000000	1.261019   
3212.000000	1.239967   
3211.000000	1.213169   
3210.000000	1.187896   
3209.000000	1.171064   
3208.000000	1.164793   
3207.000000	1.163840   
3206.000000	1.161217   
3205.000000	1.150178   
3204.000000	1.129579   
3203.000000	1.104617   
3202.000000	1.081967   
3201.000000	1.067852   
3200.000000	1.062417   
3199.000000	1.061034   
3198.000000	1.057887   
3197.000000	1.047778   
3196.000000	1.031899   
3195.000000	1.014733   
3194.000000	1.000976   
3193.000000	0.994157   
3192.000000	0.991058   
3191.000000	0.986552   
3190.000000	0.975704   
3189.000000	0.955939   
3188.000000	0.931859   
3187.000000	0.909757   
3186.000000	0.895595   
3185.000000	0.892162   
3184.000000	0.895500   
3183.000000	0.899720   
3182.000000	0.898766   
3181.000000	0.889897   
3180.000000	0.876188   
3179.000000	0.862193   
3178.000000	0.852751   
3177.000000	0.849032   
3176.000000	0.847840   
3175.000000	0.844645   
3174.000000	0.834870   
3173.000000	0.818014   
3172.000000	0.797128   
3171.000000	0.776767   
3170.000000	0.761675   
3169.000000	0.752997   
3168.000000	0.749588   
3167.000000	0.748372   
3166.000000	0.746059   
3165.000000	0.741791   
3164.000000	0.736069   
3163.000000	0.730657   
3162.000000	0.727415   
3161.000000	0.726556   
3160.000000	0.727629   
3159.000000	0.729227   
3158.000000	0.730037   
3157.000000	0.729799   
3156.000000	0.728774   
3155.000000	0.727701   
3154.000000	0.727200   
3153.000000	0.727438   
3152.000000	0.727939   
3151.000000	0.727653   
3150.000000	0.725364   
3149.000000	0.720167   
3148.000000	0.711965   
3147.000000	0.701570   
3146.000000	0.690770   
3145.000000	0.681591   
3144.000000	0.675177   
3143.000000	0.671458   
3142.000000	0.668597   
3141.000000	0.664234   
3140.000000	0.656890   
3139.000000	0.646519   
3138.000000	0.635862   
3137.000000	0.628328   
3136.000000	0.626468   
3135.000000	0.631356   
3134.000000	0.640225   
3133.000000	0.649619   
3132.000000	0.656366   
3131.000000	0.658917   
3130.000000	0.659418   
3129.000000	0.660514   
3128.000000	0.664210   
3127.000000	0.670385   
3126.000000	0.675606   
3125.000000	0.676655   
3124.000000	0.671529   
3123.000000	0.661873   
3122.000000	0.652670   
3121.000000	0.648522   
3120.000000	0.652122   
3119.000000	0.661182   
3118.000000	0.669884   
3117.000000	0.672650   
3116.000000	0.665855   
3115.000000	0.652122   
3114.000000	0.637340   
3113.000000	0.627231   
3112.000000	0.625729   
3111.000000	0.629949   
3110.000000	0.634312   
3109.000000	0.633478   
3108.000000	0.624227   
3107.000000	0.610423   
3106.000000	0.597906   
3105.000000	0.592088   
3104.000000	0.595712   
3103.000000	0.604271   
3102.000000	0.612044   
3101.000000	0.613808   
3100.000000	0.608181   
3099.000000	0.600147   
3098.000000	0.595688   
3097.000000	0.599789   
3096.000000	0.612306   
3095.000000	0.627279   
3094.000000	0.637960   
3093.000000	0.638723   
3092.000000	0.630259   
3091.000000	0.618219   
3090.000000	0.609111   
3089.000000	0.608396   
3088.000000	0.614619   
3087.000000	0.622463   
3086.000000	0.625944   
3085.000000	0.620341   
3084.000000	0.607967   
3083.000000	0.594210   
3082.000000	0.585126   
3081.000000	0.585126   
3080.000000	0.591945   
3079.000000	0.601077   
3078.000000	0.607275   
3077.000000	0.607156   
3076.000000	0.603342   
3075.000000	0.599861   
3074.000000	0.600934   
3073.000000	0.608086   
3072.000000	0.617837   
3071.000000	0.625705   
3070.000000	0.627231   
3069.000000	0.621533   
3068.000000	0.612115   
3067.000000	0.603675   
3066.000000	0.600790   
3065.000000	0.604462   
3064.000000	0.612235   
3063.000000	0.620412   
3062.000000	0.625157   
3061.000000	0.626015   
3060.000000	0.624799   
3059.000000	0.624155   
3058.000000	0.626659   
3057.000000	0.631809   
3056.000000	0.637698   
3055.000000	0.641632   
3054.000000	0.641465   
3053.000000	0.637745   
3052.000000	0.632405   
3051.000000	0.628423   
3050.000000	0.628495   
3049.000000	0.633502   
3048.000000	0.643014   
3047.000000	0.655031   
3046.000000	0.667262   
3045.000000	0.678086   
3044.000000	0.686693   
3043.000000	0.693655   
3042.000000	0.700187   
3041.000000	0.707960   
3040.000000	0.717544   
3039.000000	0.728344   
3038.000000	0.738382   
3037.000000	0.745272   
3036.000000	0.747799   
3035.000000	0.746202   
3034.000000	0.743675   
3033.000000	0.744414   
3032.000000	0.751399   
3031.000000	0.765824   
3030.000000	0.785017   
3029.000000	0.804877   
3028.000000	0.821900   
3027.000000	0.834178   
3026.000000	0.844526   
3025.000000	0.856924   
3024.000000	0.874328   
3023.000000	0.897812   
3022.000000	0.923728   
3021.000000	0.947761   
3020.000000	0.966024   
3019.000000	0.977683   
3018.000000	0.987315   
3017.000000	0.999784   
3016.000000	1.018881   
3015.000000	1.044797   
3014.000000	1.073455   
3013.000000	1.100373   
3012.000000	1.121711   
3011.000000	1.139211   
3010.000000	1.158690   
3009.000000	1.185536   
3008.000000	1.223015   
3007.000000	1.268792   
3006.000000	1.317358   
3005.000000	1.362013   
3004.000000	1.397824   
3003.000000	1.427936   
3002.000000	1.459026   
3001.000000	1.496815   
3000.000000	1.545405   
2999.000000	1.602578   
2998.000000	1.663994   
2997.000000	1.723980   
2996.000000	1.779198   
2995.000000	1.832890   
2994.000000	1.890087   
2993.000000	1.955461   
2992.000000	2.031397   
2991.000000	2.114558   
2990.000000	2.201151   
2989.000000	2.287840   
2988.000000	2.375674   
2987.000000	2.470636   
2986.000000	2.579164   
2985.000000	2.706432   
2984.000000	2.852225   
2983.000000	3.012132   
2982.000000	3.180098   
2981.000000	3.351974   
2980.000000	3.529548   
2979.000000	3.720307   
2978.000000	3.933453   
2977.000000	4.178237   
2976.000000	4.458045   
2975.000000	4.770469   
2974.000000	5.107641   
2973.000000	5.455899   
2972.000000	5.802106   
2971.000000	6.130123   
2970.000000	6.424260   
2969.000000	6.669354   
2968.000000	6.853342   
2967.000000	6.969428   
2966.000000	7.018947   
2965.000000	7.011127   
2964.000000	6.964707   
2963.000000	6.900620   
2962.000000	6.839513   
2961.000000	6.796813   
2960.000000	6.781482   
2959.000000	6.796813   
2958.000000	6.842088   
2957.000000	6.915402   
2956.000000	7.015299   
2955.000000	7.140135   
2954.000000	7.288551   
2953.000000	7.456469   
2952.000000	7.638311   
2951.000000	7.826852   
2950.000000	8.014583   
2949.000000	8.194708   
2948.000000	8.361840   
2947.000000	8.512282   
2946.000000	8.644223   
2945.000000	8.757662   
2944.000000	8.854413   
2943.000000	8.937954   
2942.000000	9.013295   
2941.000000	9.086990   
2940.000000	9.166026   
2939.000000	9.257006   
2938.000000	9.364676   
2937.000000	9.491896   
2936.000000	9.637475   
2935.000000	9.796285   
2934.000000	9.960341   
2933.000000	10.120892  
2932.000000	10.270023  
2931.000000	10.402345  
2930.000000	10.517835  
2929.000000	10.621380  
2928.000000	10.719013  
2927.000000	10.817217  
2926.000000	10.920286  
2925.000000	11.031508  
2924.000000	11.153936  
2923.000000	11.291384  
2922.000000	11.449170  
2921.000000	11.633086  
2920.000000	11.847352  
2919.000000	12.094449  
2918.000000	12.368440  
2917.000000	12.662315  
2916.000000	12.969803  
2915.000000	13.286542  
2914.000000	13.610172  
2913.000000	13.939332  
2912.000000	14.272761  
2911.000000	14.605998  
2910.000000	14.927911  
2909.000000	15.228271  
2908.000000	15.500640  
2907.000000	15.743947  
2906.000000	15.963268  
2905.000000	16.167759  
2904.000000	16.368246  
2903.000000	16.570782  
2902.000000	16.774916  
2901.000000	16.979265  
2900.000000	17.179870  
2899.000000	17.374300  
2898.000000	17.557597  
2897.000000	17.724585  
2896.000000	17.865538  
2895.000000	17.965221  
2894.000000	18.004989  
2893.000000	17.973780  
2892.000000	17.864346  
2891.000000	17.682266  
2890.000000	17.436742  
2889.000000	17.144155  
2888.000000	16.818046  
2887.000000	16.466259  
2886.000000	16.092920  
2885.000000	15.704822  
2884.000000	15.308642  
2883.000000	14.915370  
2882.000000	14.535951  
2881.000000	14.182138  
2880.000000	13.859248  
2879.000000	13.564109  
2878.000000	13.291621  
2877.000000	13.036847  
2876.000000	12.796401  
2875.000000	12.568926  
2874.000000	12.354636  
2873.000000	12.153935  
2872.000000	11.961269  
2871.000000	11.767387  
2870.000000	11.562991  
2869.000000	11.340427  
2868.000000	11.096286  
2867.000000	10.831427  
2866.000000	10.550737  
2865.000000	10.261392  
2864.000000	9.968161   
2863.000000	9.675693   
2862.000000	9.387683   
2861.000000	9.107971   
2860.000000	8.841323   
2859.000000	8.592414   
2858.000000	8.364224   
2857.000000	8.158326   
2856.000000	7.973790   
2855.000000	7.807731   
2854.000000	7.654547   
2853.000000	7.509207   
2852.000000	7.368111   
2851.000000	7.228326   
2850.000000	7.087159   
2849.000000	6.943631   
2848.000000	6.797957   
2847.000000	6.650042   
2846.000000	6.499457   
2845.000000	6.346440   
2844.000000	6.192064   
2843.000000	6.037211   
2842.000000	5.883169   
2841.000000	5.732679   
2840.000000	5.588531   
2839.000000	5.451607   
2838.000000	5.321717   
2837.000000	5.197334   
2836.000000	5.076885   
2835.000000	4.958438   
2834.000000	4.841685   
2833.000000	4.729104   
2832.000000	4.623842   
2831.000000	4.526758   
2830.000000	4.437923   
2829.000000	4.354834   
2828.000000	4.275035   
2827.000000	4.196047   
2826.000000	4.118132   
2825.000000	4.044723   
2824.000000	3.978896   
2823.000000	3.922200   
2822.000000	3.873133   
2821.000000	3.827524   
2820.000000	3.781032   
2819.000000	3.730368   
2818.000000	3.676724   
2817.000000	3.624320   
2816.000000	3.576922   
2815.000000	3.537034   
2814.000000	3.502583   
2813.000000	3.469252   
2812.000000	3.432130   
2811.000000	3.387594   
2810.000000	3.338003   
2809.000000	3.287553   
2808.000000	3.240299   
2807.000000	3.198766   
2806.000000	3.160619   
2805.000000	3.122043   
2804.000000	3.078556   
2803.000000	3.027749   
2802.000000	2.972459   
2801.000000	2.916431   
2800.000000	2.863049   
2799.000000	2.813196   
2798.000000	2.763986   
2797.000000	2.712082   
2796.000000	2.654576   
2795.000000	2.592515   
2794.000000	2.530789   
2793.000000	2.474260   
2792.000000	2.426433   
2791.000000	2.386379   
2790.000000	2.350020   
2789.000000	2.313065   
2788.000000	2.272558   
2787.000000	2.230930   
2786.000000	2.193331   
2785.000000	2.164435   
2784.000000	2.147030   
2783.000000	2.137875   
2782.000000	2.131509   
2781.000000	2.121877   
2780.000000	2.104926   
2779.000000	2.082681   
2778.000000	2.059650   
2777.000000	2.040791   
2776.000000	2.029585   
2775.000000	2.024412   
2774.000000	2.022075   
2773.000000	2.018213   
2772.000000	2.010536   
2771.000000	2.000713   
2770.000000	1.991653   
2769.000000	1.986646   
2768.000000	1.986908   
2767.000000	1.991081   
2766.000000	1.996636   
2765.000000	2.000689   
2764.000000	2.002739   
2763.000000	2.004384   
2762.000000	2.007555   
2761.000000	2.014017   
2760.000000	2.023243   
2759.000000	2.033448   
2758.000000	2.042222   
2757.000000	2.047324   
2756.000000	2.049040   
2755.000000	2.048730   
2754.000000	2.048325   
2753.000000	2.049517   
2752.000000	2.052354   
2751.000000	2.056145   
2750.000000	2.059555   
2749.000000	2.061605   
2748.000000	2.062392   
2747.000000	2.062726   
2746.000000	2.063846   
2745.000000	2.066826   
2744.000000	2.071952   
2743.000000	2.079081   
2742.000000	2.087593   
2741.000000	2.096748   
2740.000000	2.105975   
2739.000000	2.114987   
2738.000000	2.123785   
2737.000000	2.132582   
2736.000000	2.141237   
2735.000000	2.149105   
2734.000000	2.155303   
2733.000000	2.158045   
2732.000000	2.155876   
2731.000000	2.148675   
2730.000000	2.137327   
2729.000000	2.124452   
2728.000000	2.112650   
2727.000000	2.103710   
2726.000000	2.097988   
2725.000000	2.093219   
2724.000000	2.086901   
2723.000000	2.077627   
2722.000000	2.065753   
2721.000000	2.054405   
2720.000000	2.046489   
2719.000000	2.043604   
2718.000000	2.044558   
2717.000000	2.044486   
2716.000000	2.038669   
2715.000000	2.024078   
2714.000000	2.001547   
2713.000000	1.975965   
2712.000000	1.952314   
2711.000000	1.934409   
2710.000000	1.921057   
2709.000000	1.907396   
2708.000000	1.888179   
2707.000000	1.859331   
2706.000000	1.822280   
2705.000000	1.781487   
2704.000000	1.741719   
2703.000000	1.706647   
2702.000000	1.674222   
2701.000000	1.640295   
2700.000000	1.601147   
2699.000000	1.554870   
2698.000000	1.505827   
2697.000000	1.459884   
2696.000000	1.422452   
2695.000000	1.396393   
2694.000000	1.377987   
2693.000000	1.362323   
2692.000000	1.344656   
2691.000000	1.323485   
2690.000000	1.302862   
2689.000000	1.287627   
2688.000000	1.281738   
2687.000000	1.284670   
2686.000000	1.290655   
2685.000000	1.292896   
2684.000000	1.285433   
2683.000000	1.267695   
2682.000000	1.244068   
2681.000000	1.220798   
2680.000000	1.204013   
2679.000000	1.195120   
2678.000000	1.192212   
2677.000000	1.191496   
2676.000000	1.188778   
2675.000000	1.183986   
2674.000000	1.178431   
2673.000000	1.173806   
2672.000000	1.171350   
2671.000000	1.168513   
2670.000000	1.162481   
2669.000000	1.150703   
2668.000000	1.132750   
2667.000000	1.112580   
2666.000000	1.094913   
2665.000000	1.083898   
2664.000000	1.081299   
2663.000000	1.084542   
2662.000000	1.089525   
2661.000000	1.091933   
2660.000000	1.089620   
2659.000000	1.083683   
2658.000000	1.076602   
2657.000000	1.071500   
2656.000000	1.069569   
2655.000000	1.070022   
2654.000000	1.071143   
2653.000000	1.070523   
2652.000000	1.067519   
2651.000000	1.062536   
2650.000000	1.056838   
2649.000000	1.051592   
2648.000000	1.046895   
2647.000000	1.042032   
2646.000000	1.035666   
2645.000000	1.026558   
2644.000000	1.014637   
2643.000000	1.000809   
2642.000000	0.986981   
2641.000000	0.975441   
2640.000000	0.968098   
2639.000000	0.965714   
2638.000000	0.967478   
2637.000000	0.971269   
2636.000000	0.974059   
2635.000000	0.973415   
2634.000000	0.968098   
2633.000000	0.958728   
2632.000000	0.947785   
2631.000000	0.937843   
2630.000000	0.930738   
2629.000000	0.926518   
2628.000000	0.923442   
2627.000000	0.919914   
2626.000000	0.914692   
2625.000000	0.908946   
2624.000000	0.904774   
2623.000000	0.903892   
2622.000000	0.906872   
2621.000000	0.911164   
2620.000000	0.913310   
2619.000000	0.910425   
2618.000000	0.901055   
2617.000000	0.887870   
2616.000000	0.874614   
2615.000000	0.864362   
2614.000000	0.858712   
2613.000000	0.855159   
2612.000000	0.850558   
2611.000000	0.842618   
2610.000000	0.831437   
2609.000000	0.821161   
2608.000000	0.815820   
2607.000000	0.817918   
2606.000000	0.826048   
2605.000000	0.834488   
2604.000000	0.837445   
2603.000000	0.830698   
2602.000000	0.815439   
2601.000000	0.797128   
2600.000000	0.781846   
2599.000000	0.774335   
2598.000000	0.773787   
2597.000000	0.775766   
2596.000000	0.775551   
2595.000000	0.769591   
2594.000000	0.760674   
2593.000000	0.753855   
2592.000000	0.754380   
2591.000000	0.765299   
2590.000000	0.782942   
2589.000000	0.801539   
2588.000000	0.815105   
2587.000000	0.819969   
2586.000000	0.819015   
2585.000000	0.817012   
2584.000000	0.818967   
2583.000000	0.827336   
2582.000000	0.838971   
2581.000000	0.849342   
2580.000000	0.853919   
2579.000000	0.851607   
2578.000000	0.846076   
2577.000000	0.842165   
2576.000000	0.844550   
2575.000000	0.854039   
2574.000000	0.867509   
2573.000000	0.880813   
2572.000000	0.889921   
2571.000000	0.894761   
2570.000000	0.898098   
2569.000000	0.903677   
2568.000000	0.914621   
2567.000000	0.930047   
2566.000000	0.946855   
2565.000000	0.960993   
2564.000000	0.968766   
2563.000000	0.970172   
2562.000000	0.966763   
2561.000000	0.961327   
2560.000000	0.956439   
2559.000000	0.952291   
2558.000000	0.948190   
2557.000000	0.943303   
2556.000000	0.937223   
2555.000000	0.931477   
2554.000000	0.927400   
2553.000000	0.925946   
2552.000000	0.926423   
2551.000000	0.926303   
2550.000000	0.922846   
2549.000000	0.913882   
2548.000000	0.899386   
2547.000000	0.881338   
2546.000000	0.862622   
2545.000000	0.846314   
2544.000000	0.833892   
2543.000000	0.825142   
2542.000000	0.818371   
2541.000000	0.811219   
2540.000000	0.801706   
2539.000000	0.788807   
2538.000000	0.773024   
2537.000000	0.756049   
2536.000000	0.740027   
2535.000000	0.727009   
2534.000000	0.717687   
2533.000000	0.711822   
2532.000000	0.707530   
2531.000000	0.703096   
2530.000000	0.697731   
2529.000000	0.691819   
2528.000000	0.687623   
2527.000000	0.686883   
2526.000000	0.690054   
2525.000000	0.695395   
2524.000000	0.698924   
2523.000000	0.697326   
2522.000000	0.688958   
2521.000000	0.675630   
2520.000000	0.662088   
2519.000000	0.652623   
2518.000000	0.650143   
2517.000000	0.653243   
2516.000000	0.657677   
2515.000000	0.659227   
2514.000000	0.655007   
2513.000000	0.647211   
2512.000000	0.640082   
2511.000000	0.637459   
2510.000000	0.641632   
2509.000000	0.649166   
2508.000000	0.655174   
2507.000000	0.655245   
2506.000000	0.647282   
2505.000000	0.635480   
2504.000000	0.625538   
2503.000000	0.622653   
2502.000000	0.629162   
2501.000000	0.641155   
2500.000000	0.653076   
2499.000000	0.659346   
2498.000000	0.657725   
2497.000000	0.651216   
2496.000000	0.644135   
2495.000000	0.640940   
2494.000000	0.642299   
2493.000000	0.645208   
2492.000000	0.646281   
2491.000000	0.642776   
2490.000000	0.636529   
2489.000000	0.632119   
2488.000000	0.633263   
2487.000000	0.641965   
2486.000000	0.653934   
2485.000000	0.662732   
2484.000000	0.662708   
2483.000000	0.650954   
2482.000000	0.632190   
2481.000000	0.613451   
2480.000000	0.601744   
2479.000000	0.601267   
2478.000000	0.608801   
2477.000000	0.618529   
2476.000000	0.624370   
2475.000000	0.622725   
2474.000000	0.616502   
2473.000000	0.610160   
2472.000000	0.608372   
2471.000000	0.612497   
2470.000000	0.618720   
2469.000000	0.622248   
2468.000000	0.618696   
2467.000000	0.607943   
2466.000000	0.594353   
2465.000000	0.583410   
2464.000000	0.580120   
2463.000000	0.584793   
2462.000000	0.593924   
2461.000000	0.602650   
2460.000000	0.606250   
2459.000000	0.604391   
2458.000000	0.599479   
2457.000000	0.595450   
2456.000000	0.596094   
2455.000000	0.601625   
2454.000000	0.610113   
2453.000000	0.618004   
2452.000000	0.621557   
2451.000000	0.619506   
2450.000000	0.612330   
2449.000000	0.602388   
2448.000000	0.592589   
2447.000000	0.585126   
2446.000000	0.581026   
2445.000000	0.579786   
2444.000000	0.579833   
2443.000000	0.579285   
2442.000000	0.576758   
2441.000000	0.571990   
2440.000000	0.565862   
2439.000000	0.560212   
2438.000000	0.556325   
2437.000000	0.554943   
2436.000000	0.555038   
2435.000000	0.554776   
2434.000000	0.552749   
2433.000000	0.548362   
2432.000000	0.543379   
2431.000000	0.540351   
2430.000000	0.541400   
2429.000000	0.547361   
2428.000000	0.555872   
2427.000000	0.563549   
2426.000000	0.567030   
2425.000000	0.564503   
2424.000000	0.557613   
2423.000000	0.549411   
2422.000000	0.543284   
2421.000000	0.541710   
2420.000000	0.544071   
2419.000000	0.549125   
2418.000000	0.555348   
2417.000000	0.562381   
2416.000000	0.571966   
2415.000000	0.585079   
2414.000000	0.601482   
2413.000000	0.618267   
2412.000000	0.630307   
2411.000000	0.634002   
2410.000000	0.628042   
2409.000000	0.616168   
2408.000000	0.604915   
2407.000000	0.599932   
2406.000000	0.604438   
2405.000000	0.615286   
2404.000000	0.626134   
2403.000000	0.631070   
2402.000000	0.626087   
2401.000000	0.614333   
2400.000000	0.601530   
2399.000000	0.593662   
2398.000000	0.594758   
2397.000000	0.601792   
2396.000000	0.609970   
2395.000000	0.614166   
2394.000000	0.611734   
2393.000000	0.606298   
2392.000000	0.602817   
2391.000000	0.605940   
2390.000000	0.616979   
2389.000000	0.631403   
2388.000000	0.643706   
2387.000000	0.648927   
2386.000000	0.646424   
2385.000000	0.640559   
2384.000000	0.636291   
2383.000000	0.637769   
2382.000000	0.643849   
2381.000000	0.649476   
2380.000000	0.649213   
2379.000000	0.638937   
2378.000000	0.620865   
2377.000000	0.600552   
2376.000000	0.584173   
2375.000000	0.576686   
2374.000000	0.576663   
2373.000000	0.580024   
2372.000000	0.581860   
2371.000000	0.578474   
2370.000000	0.571632   
2369.000000	0.564813   
2368.000000	0.561881   
2367.000000	0.564908   
2366.000000	0.571012   
2365.000000	0.576090   
2364.000000	0.575876   
2363.000000	0.568699   
2362.000000	0.557470   
2361.000000	0.546741   
2360.000000	0.541448   
2359.000000	0.544047   
2358.000000	0.553321   
2357.000000	0.566101   
2356.000000	0.578141   
2355.000000	0.586748   
2354.000000	0.591301   
2353.000000	0.592660   
2352.000000	0.592875   
2351.000000	0.593090   
2350.000000	0.593686   
2349.000000	0.594162   
2348.000000	0.593495   
2347.000000	0.591325   
2346.000000	0.587654   
2345.000000	0.583267   
2344.000000	0.579142   
2343.000000	0.576233   
2342.000000	0.575089   
2341.000000	0.575280   
2340.000000	0.576019   
2339.000000	0.576090   
2338.000000	0.575041   
2337.000000	0.573563   
2336.000000	0.573706   
2335.000000	0.578522   
2334.000000	0.590252   
2333.000000	0.609493   
2332.000000	0.634098   
2331.000000	0.659441   
2330.000000	0.680351   
2329.000000	0.692415   
2328.000000	0.694084   
2327.000000	0.686669   
2326.000000	0.672984   
2325.000000	0.656747   
2324.000000	0.640153   
2323.000000	0.624537   
2322.000000	0.610709   
2321.000000	0.599288   
2320.000000	0.592398   
2319.000000	0.591444   
2318.000000	0.596547   
2317.000000	0.606226   
2316.000000	0.615882   
2315.000000	0.621294   
2314.000000	0.619912   
2313.000000	0.612139   
2312.000000	0.602793   
2311.000000	0.597023   
2310.000000	0.598573   
2309.000000	0.607585   
2308.000000	0.619101   
2307.000000	0.627613   
2306.000000	0.628542   
2305.000000	0.621342   
2304.000000	0.610232   
2303.000000	0.600147   
2302.000000	0.595355   
2301.000000	0.595521   
2300.000000	0.596809   
2299.000000	0.595521   
2298.000000	0.589036   
2297.000000	0.580501   
2296.000000	0.575232   
2295.000000	0.577545   
2294.000000	0.589227   
2293.000000	0.604820   
2292.000000	0.616908   
2291.000000	0.619435   
2290.000000	0.609993   
2289.000000	0.594997   
2288.000000	0.583362   
2287.000000	0.583028   
2286.000000	0.597691   
2285.000000	0.621581   
2284.000000	0.645804   
2283.000000	0.661158   
2282.000000	0.662612   
2281.000000	0.653362   
2280.000000	0.639557   
2279.000000	0.628447   
2278.000000	0.623583   
2277.000000	0.622963   
2276.000000	0.623130   
2275.000000	0.620484   
2274.000000	0.615930   
2273.000000	0.614094   
2272.000000	0.619530   
2271.000000	0.635313   
2270.000000	0.658082   
2269.000000	0.681161   
2268.000000	0.697588   
2267.000000	0.702357   
2266.000000	0.697541   
2265.000000	0.688529   
2264.000000	0.681757   
2263.000000	0.681972   
2262.000000	0.687599   
2261.000000	0.694370   
2260.000000	0.697159   
2259.000000	0.692272   
2258.000000	0.681614   
2257.000000	0.669050   
2256.000000	0.659584   
2255.000000	0.656557   
2254.000000	0.659203   
2253.000000	0.665211   
2252.000000	0.671315   
2251.000000	0.675797   
2250.000000	0.679683   
2249.000000	0.684857   
2248.000000	0.693607   
2247.000000	0.706243   
2246.000000	0.721001   
2245.000000	0.734972   
2244.000000	0.745034   
2243.000000	0.749564   
2242.000000	0.748562   
2241.000000	0.743460   
2240.000000	0.736546   
2239.000000	0.729608   
2238.000000	0.723671   
2237.000000	0.718498   
2236.000000	0.713157   
2235.000000	0.706219   
2234.000000	0.697064   
2233.000000	0.686454   
2232.000000	0.676298   
2231.000000	0.669908   
2230.000000	0.669789   
2229.000000	0.676608   
2228.000000	0.688838   
2227.000000	0.702357   
2226.000000	0.713539   
2225.000000	0.720548   
2224.000000	0.724458   
2223.000000	0.729441   
2222.000000	0.738883   
2221.000000	0.754189   
2220.000000	0.772094   
2219.000000	0.785970   
2218.000000	0.789999   
2217.000000	0.780725   
2216.000000	0.761294   
2215.000000	0.738787   
2214.000000	0.720691   
2213.000000	0.712728   
2212.000000	0.713610   
2211.000000	0.718855   
2210.000000	0.723671   
2209.000000	0.724363   
2208.000000	0.724077   
2207.000000	0.726985   
2206.000000	0.736355   
2205.000000	0.752544   
2204.000000	0.768494   
2203.000000	0.776839   
2202.000000	0.772237   
2201.000000	0.754547   
2200.000000	0.732040   
2199.000000	0.713968   
2198.000000	0.707674   
2197.000000	0.713849   
2196.000000	0.724768   
2195.000000	0.731539   
2194.000000	0.726723   
2193.000000	0.710487   
2192.000000	0.690174   
2191.000000	0.674676   
2190.000000	0.671625   
2189.000000	0.680065   
2188.000000	0.693297   
2187.000000	0.703096   
2186.000000	0.702452   
2185.000000	0.693035   
2184.000000	0.680756   
2183.000000	0.672507   
2182.000000	0.673842   
2181.000000	0.681638   
2180.000000	0.690197   
2179.000000	0.693321   
2178.000000	0.687241   
2177.000000	0.676488   
2176.000000	0.667381   
2175.000000	0.665831   
2174.000000	0.674057   
2173.000000	0.686430   
2172.000000	0.696086   
2171.000000	0.696873   
2170.000000	0.687575   
2169.000000	0.673818   
2168.000000	0.661969   
2167.000000	0.657272   
2166.000000	0.659060   
2165.000000	0.661349   
2164.000000	0.658178   
2163.000000	0.645375   
2162.000000	0.626420   
2161.000000	0.609326   
2160.000000	0.602102   
2159.000000	0.610136   
2158.000000	0.629806   
2157.000000	0.653076   
2156.000000	0.670242   
2155.000000	0.673890   
2154.000000	0.665044   
2153.000000	0.649499   
2152.000000	0.636100   
2151.000000	0.632953   
2150.000000	0.641846   
2149.000000	0.660586   
2148.000000	0.682973   
2147.000000	0.702190   
2146.000000	0.714278   
2145.000000	0.717926   
2144.000000	0.715112   
2143.000000	0.709223   
2142.000000	0.703597   
2141.000000	0.700712   
2140.000000	0.701355   
2139.000000	0.704979   
2138.000000	0.709915   
2137.000000	0.714540   
2136.000000	0.717353   
2135.000000	0.718069   
2134.000000	0.717234   
2133.000000	0.715589   
2132.000000	0.713920   
2131.000000	0.711822   
2130.000000	0.708842   
2129.000000	0.704956   
2128.000000	0.700950   
2127.000000	0.699353   
2126.000000	0.702500   
2125.000000	0.711107   
2124.000000	0.724029   
2123.000000	0.736737   
2122.000000	0.744748   
2121.000000	0.745391   
2120.000000	0.739026   
2119.000000	0.730490   
2118.000000	0.725007   
2117.000000	0.726175   
2116.000000	0.733852   
2115.000000	0.742888   
2114.000000	0.748300   
2113.000000	0.746560   
2112.000000	0.739121   
2111.000000	0.731778   
2110.000000	0.729608   
2109.000000	0.735545   
2108.000000	0.745797   
2107.000000	0.752663   
2106.000000	0.749945   
2105.000000	0.734186   
2104.000000	0.711274   
2103.000000	0.690436   
2102.000000	0.679683   
2101.000000	0.683665   
2100.000000	0.696134   
2099.000000	0.707864   
2098.000000	0.710725   
2097.000000	0.700783   
2096.000000	0.685405   
2095.000000	0.674343   
2094.000000	0.676202   
2093.000000	0.693821   
2092.000000	0.718331   
2091.000000	0.738573   
2090.000000	0.744128   
2089.000000	0.731801   
2088.000000	0.709199   
2087.000000	0.686669   
2086.000000	0.674605   
2085.000000	0.675749   
2084.000000	0.684428   
2083.000000	0.693202   
2082.000000	0.694990   
2081.000000	0.691080   
2080.000000	0.688409   
2079.000000	0.694012   
2078.000000	0.712823   
2077.000000	0.739407   
2076.000000	0.763773   
2075.000000	0.775957   
2074.000000	0.769281   
2073.000000	0.748777   
2072.000000	0.723695   
2071.000000	0.704073   
2070.000000	0.696897   
2069.000000	0.698614   
2068.000000	0.702381   
2067.000000	0.701022   
2066.000000	0.690913   
2065.000000	0.677800   
2064.000000	0.669240   
2063.000000	0.672197   
2062.000000	0.688147   
2061.000000	0.709772   
2060.000000	0.727558   
2059.000000	0.732302   
2058.000000	0.721144   
2057.000000	0.698876   
2056.000000	0.673174   
2055.000000	0.652670   
2054.000000	0.640487   
2053.000000	0.635170   
2052.000000	0.633049   
2051.000000	0.629901   
2050.000000	0.626325   
2049.000000	0.625371   
2048.000000	0.630688   
2047.000000	0.645184   
2046.000000	0.666165   
2045.000000	0.688838   
2044.000000	0.707364   
2043.000000	0.717282   
2042.000000	0.718903   
2041.000000	0.715017   
2040.000000	0.710177   
2039.000000	0.708389   
2038.000000	0.710844   
2037.000000	0.716686   
2036.000000	0.723171   
2035.000000	0.727415   
2034.000000	0.727915   
2033.000000	0.724458   
2032.000000	0.718474   
2031.000000	0.712156   
2030.000000	0.707745   
2029.000000	0.706481   
2028.000000	0.708413   
2027.000000	0.711965   
2026.000000	0.715017   
2025.000000	0.715970   
2024.000000	0.714230   
2023.000000	0.711369   
2022.000000	0.709629   
2021.000000	0.709748   
2020.000000	0.711560   
2019.000000	0.711441   
2018.000000	0.706219   
2017.000000	0.694847   
2016.000000	0.678944   
2015.000000	0.665259   
2014.000000	0.660228   
2013.000000	0.667214   
2012.000000	0.685238   
2011.000000	0.705862   
2010.000000	0.720643   
2009.000000	0.723814   
2008.000000	0.715684   
2007.000000	0.704669   
2006.000000	0.699377   
2005.000000	0.705814   
2004.000000	0.722336   
2003.000000	0.739502   
2002.000000	0.748157   
2001.000000	0.742053   
2000.000000	0.725150   
1999.000000	0.708508   
1998.000000	0.702738   
1997.000000	0.714850   
1996.000000	0.739240   
1995.000000	0.764107   
1994.000000	0.777840   
1993.000000	0.772809   
1992.000000	0.755667   
1991.000000	0.738000   
1990.000000	0.731325   
1989.000000	0.742626   
1988.000000	0.764274   
1987.000000	0.784659   
1986.000000	0.792551   
1985.000000	0.782275   
1984.000000	0.762462   
1983.000000	0.744867   
1982.000000	0.740647   
1981.000000	0.753641   
1980.000000	0.774788   
1979.000000	0.792479   
1978.000000	0.796008   
1977.000000	0.783944   
1976.000000	0.765705   
1975.000000	0.752663   
1974.000000	0.755095   
1973.000000	0.772261   
1972.000000	0.794768   
1971.000000	0.811338   
1970.000000	0.812482   
1969.000000	0.800681   
1968.000000	0.784969   
1967.000000	0.776100   
1966.000000	0.782370   
1965.000000	0.799965   
1964.000000	0.820231   
1963.000000	0.833415   
1962.000000	0.832390   
1961.000000	0.821733   
1960.000000	0.809216   
1959.000000	0.803065   
1958.000000	0.807881   
1957.000000	0.817775   
1956.000000	0.824713   
1955.000000	0.821137   
1954.000000	0.804924   
1953.000000	0.783586   
1952.000000	0.766396   
1951.000000	0.762081   
1950.000000	0.772333   
1949.000000	0.790357   
1948.000000	0.807023   
1947.000000	0.813317   
1946.000000	0.807332   
1945.000000	0.793886   
1944.000000	0.780844   
1943.000000	0.776624   
1942.000000	0.783419   
1941.000000	0.798630   
1940.000000	0.816297   
1939.000000	0.829434   
1938.000000	0.835371   
1937.000000	0.834226   
1936.000000	0.829005   
1935.000000	0.823855   
1934.000000	0.820875   
1933.000000	0.820994   
1932.000000	0.823163   
1931.000000	0.825786   
1930.000000	0.827956   
1929.000000	0.829648   
1928.000000	0.832366   
1927.000000	0.837874   
1926.000000	0.847840   
1925.000000	0.862073   
1924.000000	0.878047   
1923.000000	0.891089   
1922.000000	0.895619   
1921.000000	0.888538   
1920.000000	0.870132   
1919.000000	0.845909   
1918.000000	0.824046   
1917.000000	0.811076   
1916.000000	0.810289   
1915.000000	0.817847   
1914.000000	0.826239   
1913.000000	0.829029   
1912.000000	0.822424   
1911.000000	0.811123   
1910.000000	0.802636   
1909.000000	0.803208   
1908.000000	0.815963   
1907.000000	0.834035   
1906.000000	0.848698   
1905.000000	0.852680   
1904.000000	0.843262   
1903.000000	0.828361   
1902.000000	0.817513   
1901.000000	0.818300   
1900.000000	0.832009   
1899.000000	0.849270   
1898.000000	0.859904   
1897.000000	0.856018   
1896.000000	0.838565   
1895.000000	0.818586   
1894.000000	0.807452   
1893.000000	0.813651   
1892.000000	0.833940   
1891.000000	0.856041   
1890.000000	0.867247   
1889.000000	0.858259   
1888.000000	0.833845   
1887.000000	0.806665   
1886.000000	0.789880   
1885.000000	0.793051   
1884.000000	0.810480   
1883.000000	0.830268   
1882.000000	0.840115   
1881.000000	0.832033   
1880.000000	0.813627   
1879.000000	0.797033   
1878.000000	0.794172   
1877.000000	0.811219   
1876.000000	0.838828   
1875.000000	0.864005   
1874.000000	0.874328   
1873.000000	0.865030   
1872.000000	0.845789   
1871.000000	0.829029   
1870.000000	0.826287   
1869.000000	0.839638   
1868.000000	0.858855   
1867.000000	0.871825   
1866.000000	0.867962   
1865.000000	0.848412   
1864.000000	0.824522   
1863.000000	0.808858   
1862.000000	0.811815   
1861.000000	0.830078   
1860.000000	0.852394   
1859.000000	0.866341   
1858.000000	0.862264   
1857.000000	0.844979   
1856.000000	0.825428   
1855.000000	0.815510   
1854.000000	0.823473   
1853.000000	0.843358   
1852.000000	0.864362   
1851.000000	0.874829   
1850.000000	0.867509   
1849.000000	0.848555   
1848.000000	0.828123   
1847.000000	0.817656   
1846.000000	0.823307   
1845.000000	0.839900   
1844.000000	0.858736   
1843.000000	0.869607   
1842.000000	0.867915   
1841.000000	0.857686   
1840.000000	0.846338   
1839.000000	0.842523   
1838.000000	0.849437   
1837.000000	0.864148   
1836.000000	0.880455   
1835.000000	0.890874   
1834.000000	0.892472   
1833.000000	0.886225   
1832.000000	0.876092   
1831.000000	0.867366   
1830.000000	0.862574   
1829.000000	0.861978   
1828.000000	0.863432   
1827.000000	0.863742   
1826.000000	0.861024   
1825.000000	0.854706   
1824.000000	0.846576   
1823.000000	0.839543   
1822.000000	0.836992   
1821.000000	0.840878   
1820.000000	0.850343   
1819.000000	0.862336   
1818.000000	0.871467   
1817.000000	0.873756   
1816.000000	0.868248   
1815.000000	0.858092   
1814.000000	0.850176   
1813.000000	0.849938   
1812.000000	0.859665   
1811.000000	0.875353   
1810.000000	0.888276   
1809.000000	0.891280   
1808.000000	0.880622   
1807.000000	0.861382   
1806.000000	0.843429   
1805.000000	0.835299   
1804.000000	0.841927   
1803.000000	0.857019   
1802.000000	0.870299   
1801.000000	0.873160   
1800.000000	0.861263   
1799.000000	0.843286   
1798.000000	0.830745   
1797.000000	0.832867   
1796.000000	0.852966   
1795.000000	0.879693   
1794.000000	0.899577   
1793.000000	0.901794   
1792.000000	0.884008   
1791.000000	0.859236   
1790.000000	0.842261   
1789.000000	0.845313   
1788.000000	0.869154   
1787.000000	0.899958   
1786.000000	0.922250   
1785.000000	0.923156   
1784.000000	0.903868   
1783.000000	0.878405   
1782.000000	0.862145   
1781.000000	0.867486   
1780.000000	0.890374   
1779.000000	0.916337   
1778.000000	0.929975   
1777.000000	0.919675   
1776.000000	0.892233   
1775.000000	0.862693   
1774.000000	0.846791   
1773.000000	0.855398   
1772.000000	0.880169   
1771.000000	0.906562   
1770.000000	0.919437   
1769.000000	0.909590   
1768.000000	0.886511   
1767.000000	0.864362   
1766.000000	0.857281   
1765.000000	0.871491   
1764.000000	0.896120   
1763.000000	0.916647   
1762.000000	0.919389   
1761.000000	0.901150   
1760.000000	0.873780   
1759.000000	0.852012   
1758.000000	0.849342   
1757.000000	0.866794   
1756.000000	0.892782   
1755.000000	0.913286   
1754.000000	0.915884   
1753.000000	0.902128   
1752.000000	0.883126   
1751.000000	0.872063   
1750.000000	0.879764   
1749.000000	0.902390   
1748.000000	0.928783   
1747.000000	0.946235   
1746.000000	0.944900   
1745.000000	0.929617   
1744.000000	0.910353   
1743.000000	0.898599   
1742.000000	0.902342   
1741.000000	0.916266   
1740.000000	0.931072   
1739.000000	0.936269   
1738.000000	0.926065   
1737.000000	0.906205   
1736.000000	0.886082   
1735.000000	0.876545   
1734.000000	0.883078   
1733.000000	0.901937   
1732.000000	0.925135   
1731.000000	0.942659   
1730.000000	0.948786   
1729.000000	0.944089   
1728.000000	0.933218   
1727.000000	0.923371   
1726.000000	0.919079   
1725.000000	0.921654   
1724.000000	0.928711   
1723.000000	0.935697   
1722.000000	0.938558   
1721.000000	0.935029   
1720.000000	0.925993   
1719.000000	0.914454   
1718.000000	0.905251   
1717.000000	0.902390   
1716.000000	0.906896   
1715.000000	0.917220   
1714.000000	0.927829   
1713.000000	0.933575   
1712.000000	0.932002   
1711.000000	0.924062   
1710.000000	0.916337   
1709.000000	0.914812   
1708.000000	0.922632   
1707.000000	0.937533   
1706.000000	0.950789   
1705.000000	0.954627   
1704.000000	0.944566   
1703.000000	0.924301   
1702.000000	0.904655   
1701.000000	0.895357   
1700.000000	0.902700   
1699.000000	0.921893   
1698.000000	0.941324   
1697.000000	0.950336   
1696.000000	0.942063   
1695.000000	0.923275   
1694.000000	0.906276   
1693.000000	0.901961   
1692.000000	0.916528   
1691.000000	0.940155   
1690.000000	0.959229   
1689.000000	0.961780   
1688.000000	0.942611   
1687.000000	0.914096   
1686.000000	0.891995   
1685.000000	0.889706   
1684.000000	0.911784   
1683.000000	0.944399   
1682.000000	0.970792   
1681.000000	0.976467   
1680.000000	0.958418   
1679.000000	0.931024   
1678.000000	0.910878   
1677.000000	0.912094   
1676.000000	0.934314   
1675.000000	0.962257   
1674.000000	0.979399   
1673.000000	0.972557   
1672.000000	0.946497   
1671.000000	0.918197   
1670.000000	0.905084   
1669.000000	0.919938   
1668.000000	0.954556   
1667.000000	0.990867   
1666.000000	1.010465   
1665.000000	1.001071   
1664.000000	0.973010   
1663.000000	0.944733   
1662.000000	0.934624   
1661.000000	0.954246   
1660.000000	0.992035   
1659.000000	1.029896   
1658.000000	1.049399   
1657.000000	1.040840   
1656.000000	1.015901   
1655.000000	0.991630   
1654.000000	0.985217   
1653.000000	1.003146   
1652.000000	1.033592   
1651.000000	1.060724   
1650.000000	1.069092   
1649.000000	1.056098   
1648.000000	1.033902   
1647.000000	1.017856   
1646.000000	1.021981   
1645.000000	1.045465   
1644.000000	1.076102   
1643.000000	1.098704   
1642.000000	1.100158   
1641.000000	1.082944   
1640.000000	1.058292   
1639.000000	1.040267   
1638.000000	1.040625   
1637.000000	1.056003   
1636.000000	1.076698   
1635.000000	1.089954   
1634.000000	1.085877   
1633.000000	1.067614   
1632.000000	1.043605   
1631.000000	1.025509   
1630.000000	1.022243   
1629.000000	1.032280   
1628.000000	1.049542   
1627.000000	1.064419   
1626.000000	1.069712   
1625.000000	1.064848   
1624.000000	1.053118   
1623.000000	1.041102   
1622.000000	1.034164   
1621.000000	1.034069   
1620.000000	1.039862   
1619.000000	1.047825   
1618.000000	1.054358   
1617.000000	1.056909   
1616.000000	1.055145   
1615.000000	1.050567   
1614.000000	1.046013   
1613.000000	1.044178   
1612.000000	1.045918   
1611.000000	1.050519   
1610.000000	1.054406   
1609.000000	1.054072   
1608.000000	1.048445   
1607.000000	1.038694   
1606.000000	1.030683   
1605.000000	1.029753   
1604.000000	1.038050   
1603.000000	1.053380   
1602.000000	1.066756   
1601.000000	1.069903   
1600.000000	1.058363   
1599.000000	1.034426   
1598.000000	1.009249   
1597.000000	0.993633   
1596.000000	0.994443   
1595.000000	1.009225   
1594.000000	1.026058   
1593.000000	1.033735   
1592.000000	1.024603   
1591.000000	1.003503   
1590.000000	0.983643   
1589.000000	0.976943   
1588.000000	0.990748   
1587.000000	1.016521   
1586.000000	1.038765   
1585.000000	1.043868   
1584.000000	1.024198   
1583.000000	0.991439   
1582.000000	0.963139   
1581.000000	0.954651   
1580.000000	0.973749   
1579.000000	1.006603   
1578.000000	1.034522   
1577.000000	1.041150   
1576.000000	1.019859   
1575.000000	0.986456   
1574.000000	0.960731   
1573.000000	0.959944   
1572.000000	0.988459   
1571.000000	1.028990   
1570.000000	1.061010   
1569.000000	1.066589   
1568.000000	1.044249   
1567.000000	1.011633   
1566.000000	0.988984   
1565.000000	0.993323   
1564.000000	1.021957   
1563.000000	1.056599   
1562.000000	1.077389   
1561.000000	1.068735   
1560.000000	1.038146   
1559.000000	1.005268   
1558.000000	0.990533   
1557.000000	1.008319   
1556.000000	1.047611   
1555.000000	1.087784   
1554.000000	1.107645   
1553.000000	1.093363   
1552.000000	1.057219   
1551.000000	1.019287   
1550.000000	1.000595   
1549.000000	1.013255   
1548.000000	1.045131   
1547.000000	1.077771   
1546.000000	1.092219   
1545.000000	1.080346   
1544.000000	1.055145   
1543.000000	1.034235   
1542.000000	1.034903   
1541.000000	1.060652   
1540.000000	1.097536   
1539.000000	1.127648   
1538.000000	1.134085   
1537.000000	1.115703   
1536.000000	1.085448   
1535.000000	1.060056   
1534.000000	1.055216   
1533.000000	1.070499   
1532.000000	1.095318   
1531.000000	1.115703   
1530.000000	1.119303   
1529.000000	1.109242   
1528.000000	1.095676   
1527.000000	1.091003   
1526.000000	1.104831   
1525.000000	1.132583   
1524.000000	1.164245   
1523.000000	1.186704   
1522.000000	1.190590   
1521.000000	1.178812   
1520.000000	1.159572   
1519.000000	1.144123   
1518.000000	1.141285   
1517.000000	1.152563   
1516.000000	1.173901   
1515.000000	1.196169   
1514.000000	1.212191   
1513.000000	1.220226   
1512.000000	1.221513   
1511.000000	1.219797   
1510.000000	1.220297   
1509.000000	1.227617   
1508.000000	1.242327   
1507.000000	1.261568   
1506.000000	1.280212   
1505.000000	1.293373   
1504.000000	1.299118   
1503.000000	1.299190   
1502.000000	1.300907   
1501.000000	1.312780   
1500.000000	1.339411   
1499.000000	1.382040   
1498.000000	1.431798   
1497.000000	1.480460   
1496.000000	1.523351   
1495.000000	1.563739   
1494.000000	1.615500   
1493.000000	1.695823   
1492.000000	1.817703   
1491.000000	1.988530   
1490.000000	2.201056   
1489.000000	2.450704   
1488.000000	2.736330   
1487.000000	3.066420   
1486.000000	3.456878   
1485.000000	3.914332   
1484.000000	4.430317   
1483.000000	4.970502   
1482.000000	5.482029   
1481.000000	5.915474   
1480.000000	6.233596   
1479.000000	6.433820   
1478.000000	6.536436   
1477.000000	6.572556   
1476.000000	6.571149   
1475.000000	6.539058   
1474.000000	6.469750   
1473.000000	6.356477   
1472.000000	6.194496   
1471.000000	6.007027   
1470.000000	5.821013   
1469.000000	5.663800   
1468.000000	5.550551   
1467.000000	5.468440   
1466.000000	5.397534   
1465.000000	5.318450   
1464.000000	5.223798   
1463.000000	5.129909   
1462.000000	5.056405   
1461.000000	5.019664   
1460.000000	5.017423   
1459.000000	5.023813   
1458.000000	5.010724   
1457.000000	4.954981   
1456.000000	4.856204   
1455.000000	4.734826   
1454.000000	4.616379   
1453.000000	4.524183   
1452.000000	4.456686   
1451.000000	4.396772   
1450.000000	4.325675   
1449.000000	4.229235   
1448.000000	4.118204   
1447.000000	4.014086   
1446.000000	3.939056   
1445.000000	3.908705   
1444.000000	3.911495   
1443.000000	3.927421   
1442.000000	3.933525   
1441.000000	3.915834   
1440.000000	3.885936   
1439.000000	3.863310   
1438.000000	3.867578   
1437.000000	3.909230   
1436.000000	3.976750   
1435.000000	4.053330   
1434.000000	4.120659   
1433.000000	4.172492   
1432.000000	4.220247   
1431.000000	4.279160   
1430.000000	4.363965   
1429.000000	4.475355   
1428.000000	4.599976   
1427.000000	4.720044   
1426.000000	4.818153   
1425.000000	4.892492   
1424.000000	4.952716   
1423.000000	5.011653   
1422.000000	5.081701   
1421.000000	5.164003   
1420.000000	5.253767   
1419.000000	5.341100   
1418.000000	5.417799   
1417.000000	5.489635   
1416.000000	5.567169   
1415.000000	5.661296   
1414.000000	5.779433   
1413.000000	5.921387   
1412.000000	6.078124   
1411.000000	6.231927   
1410.000000	6.363654   
1409.000000	6.461215   
1408.000000	6.517219   
1407.000000	6.531286   
1406.000000	6.508541   
1405.000000	6.457972   
1404.000000	6.389880   
1403.000000	6.315064   
1402.000000	6.242132   
1401.000000	6.178951   
1400.000000	6.137585   
1399.000000	6.134343   
1398.000000	6.186628   
1397.000000	6.311202   
1396.000000	6.517720   
1395.000000	6.810140   
1394.000000	7.172966   
1393.000000	7.587838   
1392.000000	8.036851   
1391.000000	8.512234   
1390.000000	9.015607   
1389.000000	9.557795   
1388.000000	10.149359  
1387.000000	10.797095  
1386.000000	11.488986  
1385.000000	12.205362  
1384.000000	12.924861  
1383.000000	13.622784  
1382.000000	14.283776  
1381.000000	14.883160  
1380.000000	15.391921  
1379.000000	15.769529  
1378.000000	15.970849  
1377.000000	15.964531  
1376.000000	15.742492  
1375.000000	15.332770  
1374.000000	14.793443  
1373.000000	14.188122  
1372.000000	13.572525  
1371.000000	12.975883  
1370.000000	12.402892  
1369.000000	11.850166  
1368.000000	11.310553  
1367.000000	10.799789  
1366.000000	10.340213  
1365.000000	9.950971   
1364.000000	9.641885   
1363.000000	9.386801   
1362.000000	9.152078   
1361.000000	8.905220   
1360.000000	8.628678   
1359.000000	8.333325   
1358.000000	8.044600   
1357.000000	7.791566   
1356.000000	7.594418   
1355.000000	7.440924   
1354.000000	7.315993   
1353.000000	7.205891   
1352.000000	7.112169   
1351.000000	7.056260   
1350.000000	7.063817   
1349.000000	7.157278   
1348.000000	7.335662   
1347.000000	7.574200   
1346.000000	7.844758   
1345.000000	8.121943   
1344.000000	8.403253   
1343.000000	8.700609   
1342.000000	9.024262   
1341.000000	9.375476   
1340.000000	9.728431   
1339.000000	10.042786  
1338.000000	10.277390  
1337.000000	10.399127  
1336.000000	10.412549  
1335.000000	10.336899  
1334.000000	10.201311  
1333.000000	10.031008  
1332.000000	9.832811   
1331.000000	9.605240   
1330.000000	9.345388   
1329.000000	9.056115   
1328.000000	8.762955   
1327.000000	8.491849   
1326.000000	8.265471   
1325.000000	8.091688   
1324.000000	7.958245   
1323.000000	7.845211   
1322.000000	7.730388   
1321.000000	7.603907   
1320.000000	7.470655   
1319.000000	7.340645   
1318.000000	7.225060   
1317.000000	7.121086   
1316.000000	7.015538   
1315.000000	6.893110   
1314.000000	6.741023   
1313.000000	6.560206   
1312.000000	6.360912   
1311.000000	6.159591   
1310.000000	5.973148   
1309.000000	5.805611   
1308.000000	5.655765   
1307.000000	5.517721   
1306.000000	5.387496   
1305.000000	5.266737   
1304.000000	5.164480   
1303.000000	5.093097   
1302.000000	5.069255   
1301.000000	5.103731   
1300.000000	5.206489   
1299.000000	5.381512   
1298.000000	5.626964   
1297.000000	5.934071   
1296.000000	6.282544   
1295.000000	6.641459   
1294.000000	6.971740   
1293.000000	7.232093   
1292.000000	7.385659   
1291.000000	7.408237   
1290.000000	7.294988   
1289.000000	7.062435   
1288.000000	6.748557   
1287.000000	6.402492   
1286.000000	6.079888   
1285.000000	5.824542   
1284.000000	5.658340   
1283.000000	5.577659   
1282.000000	5.554270   
1281.000000	5.549955   
1280.000000	5.533552   
1279.000000	5.486679   
1278.000000	5.417418   
1277.000000	5.343031   
1276.000000	5.277419   
1275.000000	5.225038   
1274.000000	5.165791   
1273.000000	5.077886   
1272.000000	4.944968   
1271.000000	4.768896   
1270.000000	4.577684   
1269.000000	4.402661   
1268.000000	4.270601   
1267.000000	4.184532   
1266.000000	4.122614   
1265.000000	4.059267   
1264.000000	3.972935   
1263.000000	3.867554   
1262.000000	3.766012   
1261.000000	3.692889   
1260.000000	3.667664   
1259.000000	3.677511   
1258.000000	3.695631   
1257.000000	3.695225   
1256.000000	3.658771   
1255.000000	3.604602   
1254.000000	3.561687   
1253.000000	3.555607   
1252.000000	3.598642   
1251.000000	3.664970   
1250.000000	3.719234   
1249.000000	3.728437   
1248.000000	3.677129   
1247.000000	3.588628   
1246.000000	3.496313   
1245.000000	3.433346   
1244.000000	3.414344   
1243.000000	3.420972   
1242.000000	3.428196   
1241.000000	3.411722   
1240.000000	3.370237   
1239.000000	3.328704   
1238.000000	3.313398   
1237.000000	3.343987   
1236.000000	3.410053   
1235.000000	3.478455   
1234.000000	3.512740   
1233.000000	3.483462   
1232.000000	3.397178   
1231.000000	3.281140   
1230.000000	3.168225   
1229.000000	3.086233   
1228.000000	3.030419   
1227.000000	2.981901   
1226.000000	2.917623   
1225.000000	2.820539   
1224.000000	2.704071   
1223.000000	2.590632   
1222.000000	2.504777   
1221.000000	2.461171   
1220.000000	2.446341   
1219.000000	2.439522   
1218.000000	2.417707   
1217.000000	2.371096   
1216.000000	2.313351   
1215.000000	2.266287   
1214.000000	2.253603   
1213.000000	2.286601   
1212.000000	2.358436   
1211.000000	2.454614   
1210.000000	2.556633   
1209.000000	2.657079   
1208.000000	2.758860   
1207.000000	2.868533   
1206.000000	2.992415   
1205.000000	3.125381   
1204.000000	3.254365   
1203.000000	3.362202   
1202.000000	3.432321   
1201.000000	3.460383   
1200.000000	3.449749   
1199.000000	3.411030   
1198.000000	3.357553   
1197.000000	3.300619   
1196.000000	3.247857   
1195.000000	3.200674   
1194.000000	3.158044   
1193.000000	3.120303   
1192.000000	3.089475   
1191.000000	3.070044   
1190.000000	3.069734   
1189.000000	3.098869   
1188.000000	3.163433   
1187.000000	3.261971   
1186.000000	3.386783   
1185.000000	3.525042   
1184.000000	3.664588   
1183.000000	3.795957   
1182.000000	3.919959   
1181.000000	4.043531   
1180.000000	4.170155   
1179.000000	4.298615   
1178.000000	4.414391   
1177.000000	4.499650   
1176.000000	4.543972   
1175.000000	4.547882   
1174.000000	4.533243   
1173.000000	4.529905   
1172.000000	4.564762   
1171.000000	4.656147   
1170.000000	4.794836   
1169.000000	4.965281   
1168.000000	5.152654   
1167.000000	5.351495   
1166.000000	5.578470   
1165.000000	5.852341   
1164.000000	6.182551   
1163.000000	6.564903   
1162.000000	6.970214   
1161.000000	7.372856   
1160.000000	7.755446   
1159.000000	8.129048   
1158.000000	8.531451   
1157.000000	8.992075   
1156.000000	9.519124   
1155.000000	10.081720  
1154.000000	10.616779  
1153.000000	11.056089  
1152.000000	11.340045  
1151.000000	11.461019  
1150.000000	11.443924  
1149.000000	11.328101  
1148.000000	11.152601  
1147.000000	10.924816  
1146.000000	10.639476  
1145.000000	10.294342  
1144.000000	9.897422   
1143.000000	9.496617   
1142.000000	9.148764   
1141.000000	8.907723   
1140.000000	8.808755   
1139.000000	8.834767   
1138.000000	8.959650   
1137.000000	9.153890   
1136.000000	9.410762   
1135.000000	9.754872   
1134.000000	10.224461  
1133.000000	10.854434  
1132.000000	11.655902  
1131.000000	12.601709  
1130.000000	13.651514  
1129.000000	14.756083  
1128.000000	15.888190  
1127.000000	17.037749  
1126.000000	18.192791  
1125.000000	19.331073  
1124.000000	20.404338  
1123.000000	21.345567  
1122.000000	22.097492  
1121.000000	22.611331  
1120.000000	22.883367  
1119.000000	22.926092  
1118.000000	22.776055  
1117.000000	22.465872  
1116.000000	22.013497  
1115.000000	21.428346  
1114.000000	20.731139  
1113.000000	19.950628  
1112.000000	19.143247  
1111.000000	18.373155  
1110.000000	17.708516  
1109.000000	17.203044  
1108.000000	16.876101  
1107.000000	16.736960  
1106.000000	16.784381  
1105.000000	17.024827  
1104.000000	17.470860  
1103.000000	18.153619  
1102.000000	19.107055  
1101.000000	20.345854  
1100.000000	21.841502  
1099.000000	23.517107  
1098.000000	25.238656  
1097.000000	26.829314  
1096.000000	28.090357  
1095.000000	28.851890  
1094.000000	28.992509  
1093.000000	28.479719  
1092.000000	27.359461  
1091.000000	25.763392  
1090.000000	23.862504  
1089.000000	21.849060  
1088.000000	19.885969  
1087.000000	18.098235  
1086.000000	16.546893  
1085.000000	15.250587  
1084.000000	14.182782  
1083.000000	13.300037  
1082.000000	12.555027  
1081.000000	11.909723  
1080.000000	11.345887  
1079.000000	10.858631  
1078.000000	10.455107  
1077.000000	10.138988  
1076.000000	9.911084   
1075.000000	9.761548   
1074.000000	9.670042   
1073.000000	9.608459   
1072.000000	9.553408   
1071.000000	9.489631   
1070.000000	9.409236   
1069.000000	9.312605   
1068.000000	9.202766   
1067.000000	9.086751   
1066.000000	8.961725   
1065.000000	8.827948   
1064.000000	8.695483   
1063.000000	8.580636   
1062.000000	8.512353   
1061.000000	8.512067   
1060.000000	8.583140   
1059.000000	8.707618   
1058.000000	8.844518   
1057.000000	8.944821   
1056.000000	8.962273   
1055.000000	8.872365   
1054.000000	8.690881   
1053.000000	8.444476   
1052.000000	8.161139   
1051.000000	7.858014   
1050.000000	7.534003   
1049.000000	7.187414   
1048.000000	6.820487   
1047.000000	6.458353   
1046.000000	6.144142   
1045.000000	5.914115   
1044.000000	5.791115   
1043.000000	5.760097   
1042.000000	5.784130   
1041.000000	5.825090   
1040.000000	5.853962   
1039.000000	5.878520   
1038.000000	5.920505   
1037.000000	5.996847   
1036.000000	6.110858   
1035.000000	6.222605   
1034.000000	6.282877   
1033.000000	6.248831   
1032.000000	6.100583   
1031.000000	5.872201   
1030.000000	5.613636   
1029.000000	5.376338   
1028.000000	5.190801   
1027.000000	5.044150   
1026.000000	4.908585   
1025.000000	4.752230   
1024.000000	4.563879   
1023.000000	4.366564   
1022.000000	4.190659   
1021.000000	4.066276   
1020.000000	3.996396   
1019.000000	3.956890   
1018.000000	3.916692   
1017.000000	3.846788   
1016.000000	3.748226   
1015.000000	3.643250   
1014.000000	3.557515   
1013.000000	3.513288   
1012.000000	3.500080   
1011.000000	3.495025   
1010.000000	3.473329   
1009.000000	3.420925   
1008.000000	3.356456   
1007.000000	3.312420   
1006.000000	3.322362   
1005.000000	3.410673   
1004.000000	3.567433   
1003.000000	3.769826   
1002.000000	3.987216   
1001.000000	4.194808   
1000.000000	4.390716   
999.000000	 4.576468   
998.000000	 4.753756   
997.000000	 4.913139   
996.000000	 5.029249   
995.000000	 5.076313   
994.000000	 5.034208   
993.000000	 4.904532   
992.000000	 4.710602   
991.000000	 4.484820   
990.000000	 4.260444   
989.000000	 4.055380   
988.000000	 3.871846   
987.000000	 3.702354   
986.000000	 3.534746   
985.000000	 3.365731   
984.000000	 3.199911   
983.000000	 3.048968   
982.000000	 2.928972   
981.000000	 2.848148   
980.000000	 2.811908   
979.000000	 2.817535   
978.000000	 2.860522   
977.000000	 2.933764   
976.000000	 3.033065   
975.000000	 3.157830   
974.000000	 3.308868   
973.000000	 3.486514   
972.000000	 3.684139   
971.000000	 3.886389   
970.000000	 4.068708   
969.000000	 4.200148   
968.000000	 4.257154   
967.000000	 4.229044   
966.000000	 4.124736   
965.000000	 3.969383   
964.000000	 3.789567   
963.000000	 3.606677   
962.000000	 3.424811   
961.000000	 3.236055   
960.000000	 3.033638   
959.000000	 2.814817   
958.000000	 2.600049   
957.000000	 2.415919   
956.000000	 2.281427   
955.000000	 2.203750   
954.000000	 2.158689   
953.000000	 2.115464   
952.000000	 2.048158   
951.000000	 1.946330   
950.000000	 1.834774   
949.000000	 1.745939   
948.000000	 1.705431   
947.000000	 1.720809   
946.000000	 1.761937   
945.000000	 1.793646   
944.000000	 1.786112   
943.000000	 1.734733   
942.000000	 1.670646   
941.000000	 1.629638   
940.000000	 1.641654   
939.000000	 1.705074   
938.000000	 1.786422   
937.000000	 1.848864   
936.000000	 1.862430   
935.000000	 1.835274   
934.000000	 1.801991   
933.000000	 1.798343   
932.000000	 1.851272   
931.000000	 1.944708   
930.000000	 2.042651   
929.000000	 2.107167   
928.000000	 2.112388   
927.000000	 2.080106   
926.000000	 2.048683   
925.000000	 2.055954   
924.000000	 2.126240   
923.000000	 2.236485   
922.000000	 2.352356   
921.000000	 2.440023   
920.000000	 2.484893   
919.000000	 2.515888   
918.000000	 2.570176   
917.000000	 2.681088   
916.000000	 2.854752   
915.000000	 3.055119   
914.000000	 3.237724   
913.000000	 3.361129   
912.000000	 3.415417   
911.000000	 3.426218   
910.000000	 3.428602   
909.000000	 3.457069   
908.000000	 3.513574   
907.000000	 3.575062   
906.000000	 3.614234   
905.000000	 3.608417   
904.000000	 3.570961   
903.000000	 3.532290   
902.000000	 3.526139   
901.000000	 3.576326   
900.000000	 3.667736   
899.000000	 3.767991   
898.000000	 3.840374   
897.000000	 3.855824   
896.000000	 3.820633   
895.000000	 3.753757   
894.000000	 3.681445   
893.000000	 3.621721   
892.000000	 3.566026   
891.000000	 3.497648   
890.000000	 3.397417   
889.000000	 3.257417   
888.000000	 3.092122   
887.000000	 2.923202   
886.000000	 2.775526   
885.000000	 2.660822   
884.000000	 2.573370   
883.000000	 2.499079   
882.000000	 2.420043   
881.000000	 2.327537   
880.000000	 2.223157   
879.000000	 2.116084   
878.000000	 2.019691   
877.000000	 1.940393   
876.000000	 1.879048   
875.000000	 1.829481   
874.000000	 1.782536   
873.000000	 1.730751   
872.000000	 1.670765   
871.000000	 1.605510   
870.000000	 1.542496   
869.000000	 1.491785   
868.000000	 1.460957   
867.000000	 1.450490   
866.000000	 1.454758   
865.000000	 1.459622   
864.000000	 1.453137   
863.000000	 1.429772   
862.000000	 1.394009   
861.000000	 1.362013   
860.000000	 1.347804   
859.000000	 1.358175   
858.000000	 1.385974   
857.000000	 1.410984   
856.000000	 1.415657   
855.000000	 1.389718   
854.000000	 1.343941   
853.000000	 1.302504   
852.000000	 1.285481   
851.000000	 1.303887   
850.000000	 1.341557   
849.000000	 1.371049   
848.000000	 1.369714   
847.000000	 1.326370   
846.000000	 1.264643   
845.000000	 1.217341   
844.000000	 1.210498   
843.000000	 1.254892   
842.000000	 1.320981   
841.000000	 1.371383   
840.000000	 1.375126   
839.000000	 1.321625   
838.000000	 1.244235   
837.000000	 1.183152   
836.000000	 1.172208   
835.000000	 1.218581   
834.000000	 1.286911   
833.000000	 1.336431   
832.000000	 1.332926   
831.000000	 1.276254   
830.000000	 1.204681   
829.000000	 1.159811   
828.000000	 1.175212   
827.000000	 1.242017   
826.000000	 1.318931   
825.000000	 1.362562   
824.000000	 1.339912   
823.000000	 1.268005   
822.000000	 1.190066   
821.000000	 1.150560   
820.000000	 1.181173   
819.000000	 1.258468   
818.000000	 1.338744   
817.000000	 1.377701   
816.000000	 1.346945   
815.000000	 1.274132   
814.000000	 1.202535   
813.000000	 1.175117   
812.000000	 1.214146   
811.000000	 1.288056   
810.000000	 1.353144   
809.000000	 1.367235   
808.000000	 1.315402   
807.000000	 1.231598   
806.000000	 1.159811   
805.000000	 1.141762   
804.000000	 1.185917   
803.000000	 1.259446   
802.000000	 1.320672   
801.000000	 1.330852   
800.000000	 1.289057   
799.000000	 1.226902   
798.000000	 1.183176   
797.000000	 1.192307   
796.000000	 1.247811   
795.000000	 1.318836   
794.000000	 1.368308   
793.000000	 1.365542   
792.000000	 1.321125   
791.000000	 1.263642   
790.000000	 1.227664   
789.000000	 1.239609   
788.000000	 1.287937   
787.000000	 1.347208   
786.000000	 1.386141   
785.000000	 1.382946   
784.000000	 1.348257   
783.000000	 1.304125   
782.000000	 1.278162   
781.000000	 1.287269   
780.000000	 1.323485   
779.000000	 1.368856   
778.000000	 1.400160   
777.000000	 1.404523   
776.000000	 1.386570   
775.000000	 1.359605   
774.000000	 1.341938   
773.000000	 1.343417   
772.000000	 1.362943   
771.000000	 1.391339   
770.000000	 1.414752   
769.000000	 1.424002   
768.000000	 1.416206   
767.000000	 1.396608   
766.000000	 1.375269   
765.000000	 1.363277   
764.000000	 1.368141   
763.000000	 1.389145   
762.000000	 1.419401   
761.000000	 1.444911   
760.000000	 1.453804   
759.000000	 1.442337   
758.000000	 1.415586   
757.000000	 1.391959   
756.000000	 1.388025   
755.000000	 1.411271   
754.000000	 1.456069   
753.000000	 1.499104   
752.000000	 1.519417   
751.000000	 1.505398   
750.000000	 1.465177   
749.000000	 1.426982   
748.000000	 1.416134   
747.000000	 1.447916   
746.000000	 1.509809   
745.000000	 1.568913   
744.000000	 1.595735   
743.000000	 1.572132   
742.000000	 1.516389   
741.000000	 1.465439   
740.000000	 1.452445   
739.000000	 1.497864   
738.000000	 1.577544   
737.000000	 1.652240   
736.000000	 1.686334   
735.000000	 1.660776   
734.000000	 1.605749   
733.000000	 1.564812   
732.000000	 1.577854   
731.000000	 1.664257   
730.000000	 1.791644   
729.000000	 1.915645   
728.000000	 1.994943   
727.000000	 2.012681   
726.000000	 1.999998   
725.000000	 1.994514   
724.000000	 2.028584   
723.000000	 2.101469   
722.000000	 2.170896   
721.000000	 2.193689   
720.000000	 2.137827   
719.000000	 2.018117   
718.000000	 1.887869   
717.000000	 1.801514   
716.000000	 1.800107   
715.000000	 1.867842   
714.000000	 1.954889   
713.000000	 2.008247   
712.000000	 1.987981   
711.000000	 1.915121   
710.000000	 1.836442   
709.000000	 1.800704   
708.000000	 1.841115   
707.000000	 1.928520   
706.000000	 2.015113   
705.000000	 2.052402   
704.000000	 2.012872   
703.000000	 1.929926   
702.000000	 1.852011   
701.000000	 1.827287   
700.000000	 1.876664   
699.000000	 1.965641   
698.000000	 2.047061   
697.000000	 2.074670   
696.000000	 2.035713   
695.000000	 1.964378   
694.000000	 1.905632   
693.000000	 1.902508   
692.000000	 1.959609   
691.000000	 2.044129   
690.000000	 2.113771   
689.000000	 2.129173   
688.000000	 2.092599   
687.000000	 2.034568   
686.000000	 1.994204   
685.000000	 2.006173   
684.000000	 2.064108   
683.000000	 2.141642   
682.000000	 2.204203   
681.000000	 2.223396   
680.000000	 2.207970   
679.000000	 2.181220   
678.000000	 2.173018   
677.000000	 2.205824   
676.000000	 2.270245   
675.000000	 2.345919   
674.000000	 2.406597   
673.000000	 2.435350   
672.000000	 2.440118   
671.000000	 2.438378   
670.000000	 2.452731   
669.000000	 2.496314   
668.000000	 2.564454   
667.000000	 2.643227   
666.000000	 2.712893   
665.000000	 2.760791   
664.000000	 2.785062   
663.000000	 2.792978   
662.000000	 2.797794   
661.000000	 2.810621   
660.000000	 2.837181   
659.000000	 2.874684   
658.000000	 2.914309   
657.000000	 2.943944   
656.000000	 2.954125   
655.000000	 2.944564   
654.000000	 2.922391   
653.000000	 2.905464   
652.000000	 2.909898   
651.000000	 2.941966   
650.000000	 2.997231   
649.000000	 3.053426   
648.000000	 3.089165   
647.000000	 3.093290   
646.000000	 3.070139   
645.000000	 3.047561   
644.000000	 3.051996   
643.000000	 3.099155   
642.000000	 3.181767   
641.000000	 3.265786   
640.000000	 3.318333   
639.000000	 3.317093   
638.000000	 3.271079   
637.000000	 3.216266   
636.000000	 3.187227   
635.000000	 3.208017   
634.000000	 3.262543   
633.000000	 3.311800   
632.000000	 3.321027   
631.000000	 3.269553   
630.000000	 3.186178   
629.000000	 3.118395   
628.000000	 3.107976   
627.000000	 3.178548   
626.000000	 3.294944   
625.000000	 3.406929   
624.000000	 3.469920   
623.000000	 3.462433   
622.000000	 3.424191   
621.000000	 3.407049   
620.000000	 3.455162   
619.000000	 3.581809   
618.000000	 3.738188   
617.000000	 3.867697   
616.000000	 3.923344   
615.000000	 3.900742   
614.000000	 3.853750   
613.000000	 3.842163   
612.000000	 3.914189   
611.000000	 4.062438   
610.000000	 4.225873   
609.000000	 4.336023   
608.000000	 4.335594   
607.000000	 4.232239   
606.000000	 4.079723   
605.000000	 3.942179   
604.000000	 3.875064   
603.000000	 3.868651   
602.000000	 3.881216   
601.000000	 3.864550   
600.000000	 3.782176   
599.000000	 3.664326   
598.000000	 3.560328   
597.000000	 3.518867   
596.000000	 3.567004   
595.000000	 3.663992   
594.000000	 3.753304   
593.000000	 3.780412   
592.000000	 3.720855   
591.000000	 3.614020   
590.000000	 3.514194   
589.000000	 3.474426   
588.000000	 3.511881   
587.000000	 3.587794   
586.000000	 3.651618   
585.000000	 3.655362   
584.000000	 3.592705   
583.000000	 3.502225   
582.000000	 3.433823   
581.000000	 3.434801   
580.000000	 3.506159   
579.000000	 3.614401   
578.000000	 3.714799   
577.000000	 3.767442   
576.000000	 3.777003   
575.000000	 3.774714   
574.000000	 3.802967   
573.000000	 3.899216   
572.000000	 4.059529   
571.000000	 4.258513   
570.000000	 4.456901   
569.000000	 4.616308   
568.000000	 4.729127   
567.000000	 4.799747   
566.000000	 4.843854   
565.000000	 4.874444   
564.000000	 4.887342   
563.000000	 4.872441   
562.000000	 4.816317   
561.000000	 4.713821   
560.000000	 4.576373   
559.000000	 4.423022   
558.000000	 4.277634   
557.000000	 4.158496   
556.000000	 4.073882   
555.000000	 4.019188   
554.000000	 3.980064   
553.000000	 3.940606   
552.000000	 3.889369   
551.000000	 3.823137   
550.000000	 3.747773   
549.000000	 3.681182   
548.000000	 3.642654   
547.000000	 3.639864   
546.000000	 3.670072   
545.000000	 3.708982   
544.000000	 3.731298   
543.000000	 3.723716   
542.000000	 3.687787   
541.000000	 3.651952   
540.000000	 3.647184   
539.000000	 3.693652   
538.000000	 3.791975   
537.000000	 3.905892   
536.000000	 3.999066   
535.000000	 4.047918   
534.000000	 4.056930   
533.000000	 4.067659   
532.000000	 4.122591   
531.000000	 4.253315   
530.000000	 4.455924   
529.000000	 4.693722   
528.000000	 4.938912   
527.000000	 5.182218   
526.000000	 5.467104   
525.000000	 5.863332   
524.000000	 6.424903   
523.000000	 7.166004   
522.000000	 8.017611   
521.000000	 8.858418   
520.000000	 9.558820   
519.000000	 10.006332  
518.000000	 10.177612  
517.000000	 10.097098  
516.000000	 9.824395   
515.000000	 9.426879   
514.000000	 8.930253   
513.000000	 8.352398   
512.000000	 7.715058   
511.000000	 7.053017   
510.000000	 6.451082   
509.000000	 5.981445   
508.000000	 5.693125   
507.000000	 5.580806   
506.000000	 5.570936   
505.000000	 5.582284   
504.000000	 5.548095   
503.000000	 5.458045   
502.000000	 5.361175   
501.000000	 5.316114   
500.000000	 5.371975   
499.000000	 5.513787   
498.000000	 5.679321   
497.000000	 5.802559   
496.000000	 5.832195   
495.000000	 5.790328   
494.000000	 5.736231   
493.000000	 5.731153   
492.000000	 5.817627   
491.000000	 5.961608   
490.000000	 6.100463   
489.000000	 6.169319   
488.000000	 6.125807   
487.000000	 6.007862   
486.000000	 5.876326   
485.000000	 5.795121   
484.000000	 5.799221   
483.000000	 5.851745   
482.000000	 5.895805   
481.000000	 5.871343   
480.000000	 5.754065   
479.000000	 5.585145   
478.000000	 5.421495   
477.000000	 5.320858   
476.000000	 5.300688   
475.000000	 5.328917   
474.000000	 5.359625   
473.000000	 5.348896   
472.000000	 5.297970   
471.000000	 5.250430   
470.000000	 5.259943   
469.000000	 5.383157   
468.000000	 5.632519   
467.000000	 5.998420   
466.000000	 6.459760   
465.000000	 6.995630   
464.000000	 7.618451   
463.000000	 8.340668   
462.000000	 9.163784   
461.000000	 10.059022  
460.000000	 10.943841  
459.000000	 11.715054  
458.000000	 12.274575  
457.000000	 12.554121  
456.000000	 12.549781  
455.000000	 12.303686  
454.000000	 11.900019  
453.000000	 11.430811  
452.000000	 10.971355  
451.000000	 10.572123  
450.000000	 10.255169  
449.000000	 10.021185  
448.000000	 9.862613   
447.000000	 9.775805   
446.000000	 9.770631   
445.000000	 9.867477   
444.000000	 10.093617  
443.000000	 10.470318  
442.000000	 11.004757  
441.000000	 11.674141  
440.000000	 12.429285  
439.000000	 13.208627  
438.000000	 13.937687  
437.000000	 14.557075  
436.000000	 15.008306  
435.000000	 15.242409  
434.000000	 15.220475  
433.000000	 14.909577  
432.000000	 14.307498  
431.000000	 13.460946  
430.000000	 12.452173  
429.000000	 11.411929  
428.000000	 10.456132  
427.000000	 9.667062   
426.000000	 9.063601   
425.000000	 8.592820   
424.000000	 8.182501   
423.000000	 7.770395   
422.000000	 7.341551   
421.000000	 6.939935   
420.000000	 6.615424   
419.000000	 6.408429   
418.000000	 6.302833   
417.000000	 6.240344   
416.000000	 6.159806   
415.000000	 6.016635   
414.000000	 5.842185   
413.000000	 5.706787   
412.000000	 5.671143   
411.000000	 5.771970   
410.000000	 5.958843   
409.000000	 6.152462   
408.000000	 6.276965   
407.000000	 6.287670   
406.000000	 6.232786   
405.000000	 6.186509   
404.000000	 6.220650   
403.000000	 6.368875   
402.000000	 6.566619   
401.000000	 6.730389   
400.000000	 6.784152   
399.000000	 6.705331   
398.000000	 6.564188   
397.000000	 6.451749   
396.000000	 6.454920   
395.000000	 6.601643   
394.000000	 6.844139   
393.000000	 7.123064   
392.000000	 7.390332   
391.000000	 7.671260   
390.000000	 8.056068   
389.000000	 8.644056   
388.000000	 9.520506   
387.000000	 10.677504  
386.000000	 12.042713  
385.000000	 13.521409  
384.000000	 15.005135  
383.000000	 16.456675  
382.000000	 17.840385  
381.000000	 19.109511  
380.000000	 20.182323  
379.000000	 20.908784  
378.000000	 21.142673  
377.000000	 20.798277  
376.000000	 19.876456  
375.000000	 18.535208  
374.000000	 16.983771  
373.000000	 15.447783  
372.000000	 14.090704  
371.000000	 12.963533  
370.000000	 12.050700  
369.000000	 11.297202  
368.000000	 10.660982  
367.000000	 10.148692  
366.000000	 9.775495   
365.000000	 9.562325   
364.000000	 9.478950   
363.000000	 9.455370   
362.000000	 9.415149   
361.000000	 9.298658   
360.000000	 9.104228   
359.000000	 8.877205   
358.000000	 8.685326   
357.000000	 8.598542   
356.000000	 8.629965   
355.000000	 8.760809   
354.000000	 8.951425   
353.000000	 9.157371   
352.000000	 9.360313   
351.000000	 9.556889   
350.000000	 9.762167   
349.000000	 9.989762   
348.000000	 10.229301  
347.000000	 10.457253  
346.000000	 10.638666  
345.000000	 10.738086  
344.000000	 10.735344  
343.000000	 10.622906  
342.000000	 10.409832  
341.000000	 10.122108  
340.000000	 9.799027   
339.000000	 9.477782   
338.000000	 9.187221   
337.000000	 8.946490   
336.000000	 8.764338   
335.000000	 8.647394   
334.000000	 8.596849   
333.000000	 8.619880   
332.000000	 8.714962   
331.000000	 8.856678   
330.000000	 9.002566   
329.000000	 9.078621   
328.000000	 9.020400   
327.000000	 8.801054   
326.000000	 8.436203   
325.000000	 8.008766   
324.000000	 7.612347   
323.000000	 7.317042   
322.000000	 7.148551   
321.000000	 7.049441   
320.000000	 6.944274   
319.000000	 6.772708   
318.000000	 6.518983   
317.000000	 6.247591   
316.000000	 6.034421   
315.000000	 5.941748   
314.000000	 5.972146   
313.000000	 6.050682   
312.000000	 6.097412   
311.000000	 6.048464   
310.000000	 5.917978   
309.000000	 5.785775   
308.000000	 5.729746   
307.000000	 5.802488   
306.000000	 5.956840   
305.000000	 6.089043   
304.000000	 6.098914   
303.000000	 5.918669   
302.000000	 5.602955   
301.000000	 5.257225   
300.000000	 4.986786   
299.000000	 4.862451   
298.000000	 4.828667   
297.000000	 4.792714   
296.000000	 4.664874   
295.000000	 4.398870   
294.000000	 4.075956   
293.000000	 3.802323   
292.000000	 3.672289   
291.000000	 3.717255   
290.000000	 3.845191   
289.000000	 3.943610   
288.000000	 3.911566   
287.000000	 3.731179   
286.000000	 3.496670   
285.000000	 3.318905   
284.000000	 3.293633   
283.000000	 3.416013   
282.000000	 3.586840   
281.000000	 3.693294   
280.000000	 3.641223   
279.000000	 3.453373   
278.000000	 3.229188   
277.000000	 3.079867   
276.000000	 3.094601   
275.000000	 3.236651   
274.000000	 3.411793   
273.000000	 3.515028   
272.000000	 3.469824   
271.000000	 3.325510   
270.000000	 3.174495   
269.000000	 3.116822   
268.000000	 3.216934   
267.000000	 3.420543   
266.000000	 3.638529   
265.000000	 3.773832   
264.000000	 3.774070   
263.000000	 3.691053   
262.000000	 3.604316   
261.000000	 3.598666   
260.000000	 3.705596   
259.000000	 3.872942   
258.000000	 4.025292   
257.000000	 4.084491   
256.000000	 4.032659   
255.000000	 3.916788   
254.000000	 3.805708   
253.000000	 3.769469   
252.000000	 3.817796   
251.000000	 3.913068   
250.000000	 3.996419   
249.000000	 4.008293   
248.000000	 3.943014   
247.000000	 3.827834   
246.000000	 3.711700   
245.000000	 3.643965   
244.000000	 3.632926   
243.000000	 3.663945   
242.000000	 3.701734   
241.000000	 3.709173   
240.000000	 3.673982   
239.000000	 3.601431   
238.000000	 3.517508   
237.000000	 3.452825   
236.000000	 3.428888   
235.000000	 3.450727   
234.000000	 3.501820   
233.000000	 3.551244   
232.000000	 3.561949   
231.000000	 3.513550   
230.000000	 3.409218   
229.000000	 3.280997   
228.000000	 3.178215   
227.000000	 3.134202   
226.000000	 3.158402   
225.000000	 3.212571   
224.000000	 3.236174   
223.000000	 3.186655   
222.000000	 3.048968   
221.000000	 2.876162   
220.000000	 2.742719   
219.000000	 2.703261   
218.000000	 2.778887   
217.000000	 2.900052   
216.000000	 2.979660   
215.000000	 2.953004   
214.000000	 2.799963   
213.000000	 2.607011   
212.000000	 2.475094   
211.000000	 2.479982   
210.000000	 2.634620   
209.000000	 2.834081   
208.000000	 2.963280   
207.000000	 2.934718   
206.000000	 2.747941   
205.000000	 2.520608   
204.000000	 2.375125   
203.000000	 2.402663   
202.000000	 2.578091   
201.000000	 2.766990   
200.000000	 2.835464   
199.000000	 2.686142   
198.000000	 2.369523   
197.000000	 2.031040   
196.000000	 1.812362   
195.000000	 1.811599   
194.000000	 1.953792   
193.000000	 2.087616   
192.000000	 2.068352   
191.000000	 1.805090   
190.000000	 1.398777   
189.000000	 1.011133   
188.000000	 0.798153   
187.000000	 0.848770   
186.000000	 1.055669   
185.000000	 1.255750   
184.000000	 1.283311   
183.000000	 1.054811   
182.000000	 0.669741   
181.000000	 0.285601   
180.000000	 0.073552   
179.000000	 0.116610   
178.000000	 0.343942   
177.000000	 0.624442   
176.000000	 0.801348   
175.000000	 0.799965   
174.000000	 0.656104   
173.000000	 0.461173   
172.000000	 0.334405   
171.000000	 0.325775   
170.000000	 0.417661   
169.000000	 0.547742   
168.000000	 0.632929   
167.000000	 0.644898   
166.000000	 0.592136   
165.000000	 0.514459   
164.000000	 0.463080   
163.000000	 0.450754   
162.000000	 0.472784   
161.000000	 0.505542   
160.000000	 0.521850   
159.000000	 0.520372   
158.000000	 0.507354   
157.000000	 0.496578   
156.000000	 0.499391   
155.000000	 0.510764   
154.000000	 0.521945   
153.000000	 0.521826   
152.000000	 0.505137   
151.000000	 0.478291   
150.000000	 0.450539   
149.000000	 0.431680   
148.000000	 0.426030   
147.000000	 0.430464   
146.000000	 0.438380   
145.000000	 0.441884   
144.000000	 0.436735   
143.000000	 0.423192   
142.000000	 0.405168   
141.000000	 0.388598   
140.000000	 0.378179   
139.000000	 0.376081   
138.000000	 0.380373   
137.000000	 0.386404   
136.000000	 0.388002   
135.000000	 0.380349   
134.000000	 0.362205   
133.000000	 0.335931   
132.000000	 0.308418   
131.000000	 0.286960   
130.000000	 0.276470   
129.000000	 0.277876   
128.000000	 0.286436   
127.000000	 0.295615   
126.000000	 0.299382   
125.000000	 0.295138   
124.000000	 0.285792   
123.000000	 0.275969   
122.000000	 0.270390   
121.000000	 0.270676   
120.000000	 0.274491   
119.000000	 0.278496   
118.000000	 0.279331   
117.000000	 0.277709   
116.000000	 0.277256   
115.000000	 0.282049   
114.000000	 0.295424   
113.000000	 0.315999   
112.000000	 0.340032   
111.000000	 0.362586   
110.000000	 0.379800   
109.000000	 0.392389   
108.000000	 0.403499   
107.000000	 0.417566   
106.000000	 0.438070   
105.000000	 0.464510   
104.000000	 0.494146   
103.000000	 0.521922   
102.000000	 0.543260   
101.000000	 0.556516   
100.000000	 0.562739   
99.000000	  0.565624   
98.000000	  0.570178   
97.000000	  0.580859   
96.000000	  0.600767   
95.000000	  0.630712   
94.000000	  0.669193   
93.000000	  0.712919   
92.000000	  0.756764   
91.000000	  0.795412   
90.000000	  0.824093   
89.000000	  0.840425   
88.000000	  0.846052   
87.000000	  0.845837   
86.000000	  0.847673   
85.000000	  0.859069   
84.000000	  0.883698   
83.000000	  0.920891   
82.000000	  0.964021   
81.000000	  1.004600   
80.000000	  1.036047   
79.000000	  1.055359   
78.000000	  1.066541   
77.000000	  1.076197   
76.000000	  1.090645   
75.000000	  1.113510   
74.000000	  1.141738   
73.000000	  1.170182   
72.000000	  1.193380   
71.000000	  1.208686   
70.000000	  1.219010   
69.000000	  1.228976   
68.000000	  1.243829   
67.000000	  1.265406   
66.000000	  1.291155   
65.000000	  1.317024   
64.000000	  1.338601   
63.000000	  1.354837   
62.000000	  1.367592   
61.000000	  1.379895   
60.000000	  1.394867   
59.000000	  1.411890   
58.000000	  1.428318   
57.000000	  1.440954   
56.000000	  1.447439   
55.000000	  1.448988   
54.000000	  1.448678   
53.000000	  1.450943   
52.000000	  1.459503   
51.000000	  1.475119   
50.000000	  1.495885   
49.000000	  1.517891   
48.000000	  1.536607   
47.000000	  1.548361   
46.000000	  1.551461   
45.000000	  1.547074   
44.000000	  1.538205   
43.000000	  1.528882   
42.000000	  1.522183   
41.000000	  1.518821   
40.000000	  1.518154   
39.000000	  1.522064   
38.000000	  1.520204   
37.000000	  1.485443   
36.000000	  1.443457   
35.000000	  1.468300   
34.000000	  1.498150   
33.000000	  1.398825   
32.000000	  1.275420   
31.000000	  1.311254   
30.000000	  1.471590   
29.000000	  1.653242   
28.000000	  1.732015   
27.000000	  1.605176   
26.000000	  1.421141   
25.000000	  1.355600   
24.000000	  1.371288   
23.000000	  1.405024   
22.000000	  1.400089   
21.000000	  1.325106   
20.000000	  1.253724   
19.000000	  1.259899   
18.000000	  1.449632   
17.000000	  1.777505   
16.000000	  1.918268   
15.000000	  1.674413   
14.000000	  1.087760   
13.000000	  0.400686   
12.000000	  0.188374   
11.000000	  0.746178   
10.000000	  2.528905   
9.000000	   6.082677   
8.000000	   12.694692  
7.000000	   25.980067  
6.000000	   50.444674  
5.000000	   91.652536  
4.000000	   152.430653 
3.000000	   230.387139 
2.000000	   317.128229 
1.000000	   397.988724 
0.000000	   456.679463 

